SpectraSuiteﾃﾞｰﾀﾌｧｲﾙ
++++++++++++++++++++++++++++++++++++
日時: Tue Aug 18 16:30:13 JST 2015
ﾕｰｻﾞ: kuroda3F136
ﾀﾞｰｸｽﾍﾟｸﾄﾙ: いいえ
ﾘﾌｧﾚﾝｽｽﾍﾟｸﾄﾙ: いいえ
ｻﾝﾌﾟﾙｺﾝﾎﾟﾈﾝﾄｽﾍﾟｸﾄﾙ数: 1
分光器: USB4F05502
Integration Time (usec): 100000 (USB4F05502)
ｽﾍﾟｸﾄﾙ平均: 1 (USB4F05502)
平滑化: 0 (USB4F05502)
暗電流補正: いいえ (USB4F05502)
ﾊﾟﾙｽ信号/光源有効: いいえ (USB4F05502)
ﾊﾟﾙｽ/光源　起動: いいえ (USB4F05502)
迷光の補正: いいえ (USB4F05502)
処理済みｽﾍﾟｸﾄﾙﾋﾟｸｾﾙ数: 3648
>>>>>Begin Processed Spectral Data<<<<<
345.32	1228.78
345.55	1228.78
345.77	1228.78
345.99	1187.82
346.21	1247.21
346.43	1320.94
346.65	1316.84
346.88	1347.56
347.10	1390.57
347.32	1363.95
347.54	1402.86
347.76	1355.76
347.98	1327.08
348.21	1351.66
348.43	1325.04
348.65	1382.38
348.87	1359.85
349.09	1339.37
349.31	1329.13
349.54	1351.66
349.76	1363.95
349.98	1341.42
350.20	1384.43
350.42	1370.09
350.64	1378.28
350.87	1337.32
351.09	1368.04
351.31	1361.90
351.53	1425.39
351.75	1288.17
351.97	1370.09
352.19	1337.32
352.42	1353.71
352.64	1431.53
352.86	1300.46
353.08	1353.71
353.30	1363.95
353.52	1382.38
353.74	1314.80
353.96	1368.04
354.19	1316.84
354.41	1345.52
354.63	1370.09
354.85	1409.00
355.07	1376.24
355.29	1376.24
355.51	1345.52
355.73	1341.42
355.96	1392.62
356.18	1396.71
356.40	1378.28
356.62	1376.24
356.84	1400.81
357.06	1355.76
357.28	1423.34
357.50	1306.60
357.72	1366.00
357.95	1327.08
358.17	1370.09
358.39	1366.00
358.61	1351.66
358.83	1345.52
359.05	1525.74
359.27	1325.04
359.49	1406.95
359.71	1329.13
359.93	1327.08
360.15	1318.89
360.38	1394.67
360.60	1329.13
360.82	1374.19
361.04	1361.90
361.26	1294.32
361.48	1366.00
361.70	1419.24
361.92	1392.62
362.14	1511.40
362.36	1378.28
362.58	1333.23
362.80	1349.61
363.02	1310.70
363.25	1368.04
363.47	1327.08
363.69	1370.09
363.91	1368.04
364.13	1345.52
364.35	1335.28
364.57	1386.47
364.79	1368.04
365.01	1335.28
365.23	1380.33
365.45	1310.70
365.67	1368.04
365.89	1361.90
366.11	1404.91
366.33	1331.18
366.55	1331.18
366.77	1394.67
366.99	1302.51
367.21	1247.21
367.43	1382.38
367.66	1304.56
367.88	1343.47
368.10	1370.09
368.32	1413.10
368.54	1277.93
368.76	1406.95
368.98	1417.19
369.20	1345.52
369.42	1380.33
369.64	1259.50
369.86	1423.34
370.08	1288.17
370.30	1345.52
370.52	1353.71
370.74	1433.58
370.96	1296.36
371.18	1322.99
371.40	1370.09
371.62	1376.24
371.84	1388.52
372.06	1363.95
372.28	1390.57
372.50	1327.08
372.72	1316.84
372.94	1300.46
373.16	1355.76
373.38	1310.70
373.60	1298.41
373.82	1415.15
374.04	1337.32
374.26	1400.81
374.48	1404.91
374.70	1392.62
374.92	1398.76
375.14	1249.26
375.36	1322.99
375.58	1376.24
375.80	1341.42
376.02	1382.38
376.24	1386.47
376.46	1333.23
376.68	1437.67
376.90	1366.00
377.12	1390.57
377.34	1325.04
377.56	1363.95
377.78	1308.65
378.00	1368.04
378.21	1415.15
378.43	1343.47
378.65	1406.95
378.87	1337.32
379.09	1333.23
379.31	1335.28
379.53	1351.66
379.75	1312.75
379.97	1402.86
380.19	1406.95
380.41	1374.19
380.63	1413.10
380.85	1382.38
381.07	1380.33
381.29	1402.86
381.51	1298.41
381.73	1310.70
381.95	1402.86
382.17	1398.76
382.39	1359.85
382.60	1363.95
382.82	1329.13
383.04	1409.00
383.26	1380.33
383.48	1366.00
383.70	1421.29
383.92	1396.71
384.14	1261.55
384.36	1353.71
384.58	1398.76
384.80	1271.79
385.02	1337.32
385.24	1386.47
385.45	1388.52
385.67	1411.05
385.89	1294.32
386.11	1370.09
386.33	1386.47
386.55	1269.74
386.77	1322.99
386.99	1394.67
387.21	1374.19
387.43	1398.76
387.65	1300.46
387.86	1339.37
388.08	1366.00
388.30	1333.23
388.52	1413.10
388.74	1372.14
388.96	1370.09
389.18	1372.14
389.40	1384.43
389.62	1353.71
389.83	1384.43
390.05	1296.36
390.27	1370.09
390.49	1372.14
390.71	1411.05
390.93	1368.04
391.15	1337.32
391.37	1388.52
391.58	1398.76
391.80	1390.57
392.02	1400.81
392.24	1370.09
392.46	1378.28
392.68	1312.75
392.90	1335.28
393.12	1468.39
393.33	1368.04
393.55	1351.66
393.77	1337.32
393.99	1402.86
394.21	1353.71
394.43	1363.95
394.64	1298.41
394.86	1384.43
395.08	1374.19
395.30	1411.05
395.52	1325.04
395.74	1314.80
395.96	1394.67
396.17	1368.04
396.39	1386.47
396.61	1411.05
396.83	1359.85
397.05	1277.93
397.27	1406.95
397.48	1312.75
397.70	1361.90
397.92	1374.19
398.14	1363.95
398.36	1327.08
398.58	1322.99
398.79	1421.29
399.01	1333.23
399.23	1366.00
399.45	1343.47
399.67	1351.66
399.88	1361.90
400.10	1417.19
400.32	1333.23
400.54	1402.86
400.76	1415.15
400.98	1372.14
401.19	1290.22
401.41	1413.10
401.63	1378.28
401.85	1374.19
402.07	1302.51
402.28	1386.47
402.50	1359.85
402.72	1312.75
402.94	1351.66
403.16	1245.16
403.37	1427.43
403.59	1302.51
403.81	1384.43
404.03	1349.61
404.24	1370.09
404.46	1322.99
404.68	1331.18
404.90	1376.24
405.12	1423.34
405.33	1312.75
405.55	1353.71
405.77	1374.19
405.99	1402.86
406.20	1404.91
406.42	1413.10
406.64	1363.95
406.86	1359.85
407.07	1288.17
407.29	1316.84
407.51	1411.05
407.73	1331.18
407.95	1409.00
408.16	1333.23
408.38	1372.14
408.60	1314.80
408.82	1439.72
409.03	1357.80
409.25	1359.85
409.47	1337.32
409.69	1368.04
409.90	1392.62
410.12	1312.75
410.34	1409.00
410.56	1316.84
410.77	1320.94
410.99	1456.11
411.21	1402.86
411.42	1288.17
411.64	1402.86
411.86	1345.52
412.08	1357.80
412.29	1443.82
412.51	1357.80
412.73	1390.57
412.95	1361.90
413.16	1337.32
413.38	1294.32
413.60	1406.95
413.81	1361.90
414.03	1329.13
414.25	1306.60
414.47	1359.85
414.68	1378.28
414.90	1396.71
415.12	1415.15
415.33	1404.91
415.55	1419.24
415.77	1302.51
415.99	1368.04
416.20	1339.37
416.42	1294.32
416.64	1308.65
416.85	1359.85
417.07	1376.24
417.29	1398.76
417.50	1443.82
417.72	1329.13
417.94	1372.14
418.15	1353.71
418.37	1425.39
418.59	1359.85
418.81	1376.24
419.02	1443.82
419.24	1359.85
419.46	1329.13
419.67	1394.67
419.89	1337.32
420.11	1279.98
420.32	1441.77
420.54	1400.81
420.76	1409.00
420.97	1396.71
421.19	1308.65
421.41	1320.94
421.62	1398.76
421.84	1296.36
422.06	1343.47
422.27	1351.66
422.49	1300.46
422.71	1353.71
422.92	1443.82
423.14	1419.24
423.36	1378.28
423.57	1306.60
423.79	1341.42
424.00	1411.05
424.22	1312.75
424.44	1386.47
424.65	1359.85
424.87	1343.47
425.09	1290.22
425.30	1441.77
425.52	1353.71
425.74	1378.28
425.95	1341.42
426.17	1406.95
426.38	1335.28
426.60	1433.58
426.82	1468.39
427.03	1384.43
427.25	1302.51
427.47	1310.70
427.68	1361.90
427.90	1370.09
428.11	1355.76
428.33	1458.15
428.55	1347.56
428.76	1374.19
428.98	1341.42
429.20	1363.95
429.41	1361.90
429.63	1368.04
429.84	1376.24
430.06	1355.76
430.28	1314.80
430.49	1288.17
430.71	1378.28
430.92	1372.14
431.14	1329.13
431.36	1406.95
431.57	1378.28
431.79	1439.72
432.00	1361.90
432.22	1392.62
432.43	1394.67
432.65	1277.93
432.87	1343.47
433.08	1394.67
433.30	1327.08
433.51	1347.56
433.73	1406.95
433.95	1439.72
434.16	1335.28
434.38	1413.10
434.59	1302.51
434.81	1388.52
435.02	1357.80
435.24	1433.58
435.46	1366.00
435.67	1452.01
435.89	1495.02
436.10	1523.69
436.32	1419.24
436.53	1431.53
436.75	1370.09
436.96	1431.53
437.18	1404.91
437.40	1341.42
437.61	1314.80
437.83	1343.47
438.04	1370.09
438.26	1269.74
438.47	1390.57
438.69	1366.00
438.90	1427.43
439.12	1431.53
439.33	1351.66
439.55	1368.04
439.76	1296.36
439.98	1335.28
440.20	1355.76
440.41	1296.36
440.63	1318.89
440.84	1443.82
441.06	1337.32
441.27	1355.76
441.49	1325.04
441.70	1413.10
441.92	1366.00
442.13	1427.43
442.35	1396.71
442.56	1409.00
442.78	1282.03
442.99	1331.18
443.21	1345.52
443.42	1294.32
443.64	1400.81
443.85	1304.56
444.07	1386.47
444.28	1355.76
444.50	1386.47
444.71	1339.37
444.93	1392.62
445.14	1279.98
445.36	1349.61
445.57	1406.95
445.79	1411.05
446.00	1333.23
446.22	1409.00
446.43	1300.46
446.65	1341.42
446.86	1316.84
447.08	1441.77
447.29	1279.98
447.51	1413.10
447.72	1390.57
447.94	1460.20
448.15	1396.71
448.37	1343.47
448.58	1347.56
448.80	1335.28
449.01	1372.14
449.22	1296.36
449.44	1363.95
449.65	1333.23
449.87	1372.14
450.08	1394.67
450.30	1419.24
450.51	1335.28
450.73	1351.66
450.94	1589.22
451.16	1339.37
451.37	1421.29
451.59	1339.37
451.80	1396.71
452.01	1388.52
452.23	1400.81
452.44	1411.05
452.66	1361.90
452.87	1300.46
453.09	1322.99
453.30	1382.38
453.51	1406.95
453.73	1343.47
453.94	1454.06
454.16	1347.56
454.37	1400.81
454.59	1345.52
454.80	1376.24
455.02	1259.50
455.23	1343.47
455.44	1388.52
455.66	1304.56
455.87	1366.00
456.09	1277.93
456.30	1390.57
456.51	1417.19
456.73	1368.04
456.94	1308.65
457.16	1327.08
457.37	1421.29
457.58	1288.17
457.80	1308.65
458.01	1366.00
458.23	1351.66
458.44	1341.42
458.66	1378.28
458.87	1314.80
459.08	1394.67
459.30	1329.13
459.51	1404.91
459.72	1335.28
459.94	1382.38
460.15	1361.90
460.37	1497.07
460.58	1355.76
460.79	1331.18
461.01	1386.47
461.22	1339.37
461.44	1394.67
461.65	1374.19
461.86	1357.80
462.08	1331.18
462.29	1372.14
462.50	1376.24
462.72	1325.04
462.93	1376.24
463.15	1312.75
463.36	1329.13
463.57	1441.77
463.79	1339.37
464.00	1308.65
464.21	1327.08
464.43	1370.09
464.64	1406.95
464.85	1325.04
465.07	1384.43
465.28	1322.99
465.49	1372.14
465.71	1288.17
465.92	1298.41
466.13	1267.69
466.35	1343.47
466.56	1363.95
466.78	1361.90
466.99	1394.67
467.20	1402.86
467.42	1359.85
467.63	1363.95
467.84	1370.09
468.06	1384.43
468.27	1388.52
468.48	1431.53
468.70	1320.94
468.91	1363.95
469.12	1417.19
469.33	1347.56
469.55	1384.43
469.76	1406.95
469.97	1353.71
470.19	1392.62
470.40	1290.22
470.61	1378.28
470.83	1376.24
471.04	1353.71
471.25	1361.90
471.47	1421.29
471.68	1390.57
471.89	1320.94
472.11	1310.70
472.32	1394.67
472.53	1427.43
472.74	1394.67
472.96	1359.85
473.17	1355.76
473.38	1439.72
473.60	1345.52
473.81	1368.04
474.02	1376.24
474.23	1370.09
474.45	1355.76
474.66	1282.03
474.87	1419.24
475.09	1357.80
475.30	1359.85
475.51	1394.67
475.72	1396.71
475.94	1380.33
476.15	1390.57
476.36	1290.22
476.58	1398.76
476.79	1341.42
477.00	1374.19
477.21	1366.00
477.43	1333.23
477.64	1368.04
477.85	1341.42
478.06	1267.69
478.28	1368.04
478.49	1290.22
478.70	1380.33
478.91	1331.18
479.13	1296.36
479.34	1337.32
479.55	1386.47
479.76	1378.28
479.98	1394.67
480.19	1333.23
480.40	1413.10
480.61	1355.76
480.83	1411.05
481.04	1353.71
481.25	1345.52
481.46	1304.56
481.68	1335.28
481.89	1366.00
482.10	1312.75
482.31	1368.04
482.52	1331.18
482.74	1322.99
482.95	1400.81
483.16	1394.67
483.37	1273.84
483.59	1386.47
483.80	1312.75
484.01	1378.28
484.22	1382.38
484.43	1343.47
484.65	1337.32
484.86	1406.95
485.07	1392.62
485.28	1361.90
485.49	1435.63
485.71	1347.56
485.92	1353.71
486.13	1302.51
486.34	1347.56
486.55	1441.77
486.77	1566.70
486.98	1515.50
487.19	1642.47
487.40	1818.60
487.61	2060.26
487.83	2512.86
488.04	3299.28
488.25	3837.89
488.46	3074.00
488.67	2465.75
488.88	2142.18
489.10	1804.26
489.31	1621.99
489.52	1411.05
489.73	1431.53
489.94	1431.53
490.16	1413.10
490.37	1372.14
490.58	1404.91
490.79	1390.57
491.00	1423.34
491.21	1409.00
491.43	1394.67
491.64	1337.32
491.85	1347.56
492.06	1345.52
492.27	1386.47
492.48	1409.00
492.69	1388.52
492.91	1380.33
493.12	1464.30
493.33	1411.05
493.54	1302.51
493.75	1437.67
493.96	1312.75
494.17	1423.34
494.39	1370.09
494.60	1517.54
494.81	1421.29
495.02	1372.14
495.23	1388.52
495.44	1409.00
495.65	1304.56
495.87	1433.58
496.08	1327.08
496.29	1368.04
496.50	1380.33
496.71	1314.80
496.92	1290.22
497.13	1292.27
497.34	1372.14
497.55	1316.84
497.77	1419.24
497.98	1429.48
498.19	1370.09
498.40	1388.52
498.61	1390.57
498.82	1378.28
499.03	1325.04
499.24	1378.28
499.45	1445.87
499.67	1333.23
499.88	1370.09
500.09	1318.89
500.30	1361.90
500.51	1290.22
500.72	1433.58
500.93	1363.95
501.14	1316.84
501.35	1359.85
501.56	1300.46
501.77	1359.85
501.99	1335.28
502.20	1308.65
502.41	1374.19
502.62	1325.04
502.83	1400.81
503.04	1355.76
503.25	1341.42
503.46	1417.19
503.67	1413.10
503.88	1370.09
504.09	1363.95
504.30	1386.47
504.51	1433.58
504.72	1347.56
504.94	1415.15
505.15	1327.08
505.36	1400.81
505.57	1370.09
505.78	1353.71
505.99	1359.85
506.20	1402.86
506.41	1335.28
506.62	1304.56
506.83	1357.80
507.04	1372.14
507.25	1329.13
507.46	1370.09
507.67	1394.67
507.88	1386.47
508.09	1331.18
508.30	1384.43
508.51	1329.13
508.72	1374.19
508.93	1411.05
509.14	1347.56
509.35	1456.11
509.56	1343.47
509.77	1368.04
509.99	1310.70
510.20	1361.90
510.41	1433.58
510.62	1259.50
510.83	1384.43
511.04	1452.01
511.25	1335.28
511.46	1376.24
511.67	1411.05
511.88	1337.32
512.09	1396.71
512.30	1353.71
512.51	1300.46
512.72	1386.47
512.93	1353.71
513.14	1380.33
513.35	1378.28
513.56	1398.76
513.77	1400.81
513.98	1363.95
514.19	1390.57
514.40	1374.19
514.61	1316.84
514.82	1292.27
515.03	1357.80
515.24	1339.37
515.45	1359.85
515.66	1322.99
515.87	1392.62
516.07	1318.89
516.28	1495.02
516.49	1359.85
516.70	1433.58
516.91	1400.81
517.12	1370.09
517.33	1370.09
517.54	1372.14
517.75	1378.28
517.96	1322.99
518.17	1298.41
518.38	1347.56
518.59	1398.76
518.80	1318.89
519.01	1343.47
519.22	1402.86
519.43	1388.52
519.64	1441.77
519.85	1337.32
520.06	1439.72
520.27	1398.76
520.48	1402.86
520.69	1327.08
520.90	1302.51
521.10	1386.47
521.31	1372.14
521.52	1386.47
521.73	1372.14
521.94	1378.28
522.15	1331.18
522.36	1320.94
522.57	1353.71
522.78	1355.76
522.99	1445.87
523.20	1343.47
523.41	1421.29
523.62	1314.80
523.83	1435.63
524.03	1339.37
524.24	1304.56
524.45	1322.99
524.66	1359.85
524.87	1277.93
525.08	1329.13
525.29	1415.15
525.50	1386.47
525.71	1351.66
525.92	1316.84
526.13	1349.61
526.33	1361.90
526.54	1300.46
526.75	1337.32
526.96	1347.56
527.17	1400.81
527.38	1386.47
527.59	1337.32
527.80	1374.19
528.01	1322.99
528.21	1302.51
528.42	1359.85
528.63	1302.51
528.84	1247.21
529.05	1353.71
529.26	1386.47
529.47	1400.81
529.68	1372.14
529.89	1294.32
530.09	1316.84
530.30	1327.08
530.51	1335.28
530.72	1316.84
530.93	1447.91
531.14	1361.90
531.35	1417.19
531.55	1368.04
531.76	1413.10
531.97	1339.37
532.18	1372.14
532.39	1331.18
532.60	1341.42
532.81	1443.82
533.01	1404.91
533.22	1388.52
533.43	1370.09
533.64	1374.19
533.85	1337.32
534.06	1384.43
534.27	1308.65
534.47	1351.66
534.68	1294.32
534.89	1349.61
535.10	1236.97
535.31	1320.94
535.52	1402.86
535.72	1384.43
535.93	1433.58
536.14	1374.19
536.35	1392.62
536.56	1380.33
536.76	1384.43
536.97	1368.04
537.18	1419.24
537.39	1374.19
537.60	1425.39
537.81	1376.24
538.01	1361.90
538.22	1374.19
538.43	1415.15
538.64	1372.14
538.85	1443.82
539.05	1314.80
539.26	1390.57
539.47	1400.81
539.68	1421.29
539.89	1310.70
540.09	1378.28
540.30	1425.39
540.51	1384.43
540.72	1460.20
540.93	1335.28
541.13	1421.29
541.34	1409.00
541.55	1409.00
541.76	1308.65
541.96	1435.63
542.17	1322.99
542.38	1372.14
542.59	1267.69
542.80	1439.72
543.00	1331.18
543.21	1425.39
543.42	1327.08
543.63	1368.04
543.83	1429.48
544.04	1394.67
544.25	1472.49
544.46	1390.57
544.67	1388.52
544.87	1406.95
545.08	1409.00
545.29	1482.73
545.50	1269.74
545.70	1333.23
545.91	1376.24
546.12	1325.04
546.33	1349.61
546.53	1392.62
546.74	1353.71
546.95	1345.52
547.16	1353.71
547.36	1251.31
547.57	1277.93
547.78	1337.32
547.98	1374.19
548.19	1335.28
548.40	1335.28
548.61	1400.81
548.81	1355.76
549.02	1404.91
549.23	1388.52
549.44	1390.57
549.64	1302.51
549.85	1409.00
550.06	1370.09
550.26	1425.39
550.47	1327.08
550.68	1386.47
550.89	1449.96
551.09	1415.15
551.30	1343.47
551.51	1419.24
551.71	1421.29
551.92	1282.03
552.13	1345.52
552.34	1390.57
552.54	1384.43
552.75	1366.00
552.96	1339.37
553.16	1411.05
553.37	1359.85
553.58	1363.95
553.78	1357.80
553.99	1380.33
554.20	1368.04
554.41	1343.47
554.61	1361.90
554.82	1370.09
555.03	1384.43
555.23	1370.09
555.44	1318.89
555.65	1392.62
555.85	1359.85
556.06	1460.20
556.27	1443.82
556.47	1361.90
556.68	1347.56
556.89	1374.19
557.09	1378.28
557.30	1394.67
557.51	1378.28
557.71	1368.04
557.92	1337.32
558.13	1343.47
558.33	1372.14
558.54	1443.82
558.75	1347.56
558.95	1380.33
559.16	1396.71
559.37	1308.65
559.57	1406.95
559.78	1288.17
559.98	1431.53
560.19	1349.61
560.40	1452.01
560.60	1284.08
560.81	1353.71
561.02	1384.43
561.22	1390.57
561.43	1316.84
561.64	1425.39
561.84	1343.47
562.05	1374.19
562.25	1343.47
562.46	1318.89
562.67	1345.52
562.87	1392.62
563.08	1366.00
563.29	1351.66
563.49	1296.36
563.70	1337.32
563.90	1445.87
564.11	1394.67
564.32	1359.85
564.52	1396.71
564.73	1294.32
564.93	1327.08
565.14	1386.47
565.35	1384.43
565.55	1341.42
565.76	1294.32
565.96	1419.24
566.17	1476.59
566.38	1333.23
566.58	1406.95
566.79	1357.80
566.99	1308.65
567.20	1333.23
567.41	1292.27
567.61	1368.04
567.82	1335.28
568.02	1302.51
568.23	1376.24
568.43	1388.52
568.64	1368.04
568.85	1296.36
569.05	1370.09
569.26	1396.71
569.46	1449.96
569.67	1396.71
569.87	1449.96
570.08	1310.70
570.29	1404.91
570.49	1359.85
570.70	1359.85
570.90	1386.47
571.11	1421.29
571.31	1382.38
571.52	1380.33
571.73	1294.32
571.93	1392.62
572.14	1359.85
572.34	1460.20
572.55	1394.67
572.75	1390.57
572.96	1439.72
573.16	1411.05
573.37	1392.62
573.57	1355.76
573.78	1404.91
573.99	1370.09
574.19	1441.77
574.40	1361.90
574.60	1349.61
574.81	1378.28
575.01	1406.95
575.22	1411.05
575.42	1417.19
575.63	1431.53
575.83	1273.84
576.04	1351.66
576.24	1415.15
576.45	1472.49
576.65	1431.53
576.86	1441.77
577.06	1409.00
577.27	1411.05
577.47	1310.70
577.68	1409.00
577.88	1370.09
578.09	1398.76
578.29	1372.14
578.50	1415.15
578.70	1404.91
578.91	1443.82
579.11	1501.16
579.32	1400.81
579.52	1435.63
579.73	1417.19
579.93	1441.77
580.14	1492.97
580.34	1335.28
580.55	1372.14
580.75	1421.29
580.96	1443.82
581.16	1419.24
581.37	1441.77
581.57	1404.91
581.78	1409.00
581.98	1351.66
582.19	1460.20
582.39	1476.59
582.60	1417.19
582.80	1431.53
583.00	1503.21
583.21	1394.67
583.41	1384.43
583.62	1449.96
583.82	1449.96
584.03	1388.52
584.23	1376.24
584.44	1392.62
584.64	1370.09
584.85	1482.73
585.05	1411.05
585.25	1435.63
585.46	1384.43
585.66	1402.86
585.87	1417.19
586.07	1478.63
586.28	1435.63
586.48	1419.24
586.69	1492.97
586.89	1366.00
587.09	1441.77
587.30	1400.81
587.50	1415.15
587.71	1380.33
587.91	1312.75
588.12	1400.81
588.32	1312.75
588.52	1435.63
588.73	1382.38
588.93	1376.24
589.14	1439.72
589.34	1347.56
589.55	1480.68
589.75	1366.00
589.95	1384.43
590.16	1394.67
590.36	1482.73
590.57	1458.15
590.77	1474.54
590.97	1378.28
591.18	1417.19
591.38	1529.83
591.59	1343.47
591.79	1431.53
591.99	1468.39
592.20	1415.15
592.40	1392.62
592.61	1441.77
592.81	1402.86
593.01	1396.71
593.22	1400.81
593.42	1380.33
593.62	1415.15
593.83	1347.56
594.03	1458.15
594.24	1445.87
594.44	1470.44
594.64	1542.12
594.85	1499.11
595.05	1472.49
595.25	1458.15
595.46	1443.82
595.66	1452.01
595.87	1445.87
596.07	1495.02
596.27	1404.91
596.48	1413.10
596.68	1423.34
596.88	1419.24
597.09	1458.15
597.29	1427.43
597.49	1409.00
597.70	1359.85
597.90	1449.96
598.10	1472.49
598.31	1439.72
598.51	1378.28
598.71	1372.14
598.92	1429.48
599.12	1376.24
599.32	1378.28
599.53	1374.19
599.73	1406.95
599.93	1454.06
600.14	1484.78
600.34	1406.95
600.54	1480.68
600.75	1439.72
600.95	1396.71
601.15	1402.86
601.36	1458.15
601.56	1402.86
601.76	1347.56
601.97	1413.10
602.17	1359.85
602.37	1368.04
602.58	1345.52
602.78	1423.34
602.98	1359.85
603.19	1357.80
603.39	1425.39
603.59	1415.15
603.79	1437.67
604.00	1437.67
604.20	1374.19
604.40	1435.63
604.61	1480.68
604.81	1368.04
605.01	1460.20
605.22	1452.01
605.42	1468.39
605.62	1458.15
605.82	1380.33
606.03	1488.87
606.23	1347.56
606.43	1400.81
606.63	1449.96
606.84	1427.43
607.04	1384.43
607.24	1425.39
607.45	1460.20
607.65	1390.57
607.85	1427.43
608.05	1439.72
608.26	1386.47
608.46	1378.28
608.66	1353.71
608.86	1396.71
609.07	1421.29
609.27	1388.52
609.47	1392.62
609.67	1392.62
609.88	1411.05
610.08	1429.48
610.28	1417.19
610.48	1368.04
610.69	1382.38
610.89	1306.60
611.09	1380.33
611.29	1466.35
611.50	1492.97
611.70	1472.49
611.90	1376.24
612.10	1415.15
612.31	1366.00
612.51	1361.90
612.71	1351.66
612.91	1376.24
613.12	1374.19
613.32	1454.06
613.52	1449.96
613.72	1331.18
613.92	1386.47
614.13	1316.84
614.33	1404.91
614.53	1431.53
614.73	1320.94
614.94	1411.05
615.14	1423.34
615.34	1474.54
615.54	1435.63
615.74	1478.63
615.95	1464.30
616.15	1363.95
616.35	1351.66
616.55	1431.53
616.75	1398.76
616.96	1390.57
617.16	1273.84
617.36	1388.52
617.56	1404.91
617.76	1361.90
617.96	1404.91
618.17	1429.48
618.37	1425.39
618.57	1388.52
618.77	1386.47
618.97	1345.52
619.18	1390.57
619.38	1445.87
619.58	1376.24
619.78	1441.77
619.98	1388.52
620.18	1357.80
620.39	1392.62
620.59	1425.39
620.79	1433.58
620.99	1456.11
621.19	1394.67
621.39	1400.81
621.60	1343.47
621.80	1382.38
622.00	1363.95
622.20	1409.00
622.40	1345.52
622.60	1374.19
622.81	1312.75
623.01	1353.71
623.21	1374.19
623.41	1286.12
623.61	1370.09
623.81	1390.57
624.01	1392.62
624.22	1390.57
624.42	1431.53
624.62	1300.46
624.82	1443.82
625.02	1398.76
625.22	1425.39
625.42	1431.53
625.62	1466.35
625.83	1370.09
626.03	1409.00
626.23	1372.14
626.43	1333.23
626.63	1411.05
626.83	1413.10
627.03	1359.85
627.23	1386.47
627.43	1398.76
627.64	1359.85
627.84	1394.67
628.04	1329.13
628.24	1292.27
628.44	1392.62
628.64	1398.76
628.84	1380.33
629.04	1480.68
629.24	1404.91
629.45	1366.00
629.65	1472.49
629.85	1298.41
630.05	1433.58
630.25	1372.14
630.45	1402.86
630.65	1431.53
630.85	1343.47
631.05	1404.91
631.25	1363.95
631.45	1361.90
631.65	1320.94
631.86	1374.19
632.06	1472.49
632.26	1355.76
632.46	1417.19
632.66	1445.87
632.86	1394.67
633.06	1468.39
633.26	1339.37
633.46	1419.24
633.66	1429.48
633.86	1388.52
634.06	1376.24
634.26	1404.91
634.46	1449.96
634.66	1439.72
634.86	1413.10
635.07	1511.40
635.27	1347.56
635.47	1390.57
635.67	1415.15
635.87	1402.86
636.07	1402.86
636.27	1402.86
636.47	1368.04
636.67	1378.28
636.87	1447.91
637.07	1507.30
637.27	1421.29
637.47	1454.06
637.67	1355.76
637.87	1452.01
638.07	1472.49
638.27	1443.82
638.47	1409.00
638.67	1388.52
638.87	1466.35
639.07	1353.71
639.27	1368.04
639.47	1349.61
639.67	1452.01
639.87	1443.82
640.07	1452.01
640.27	1417.19
640.47	1417.19
640.67	1486.83
640.87	1374.19
641.07	1337.32
641.27	1327.08
641.47	1366.00
641.67	1382.38
641.87	1406.95
642.07	1507.30
642.27	1366.00
642.47	1406.95
642.67	1464.30
642.87	1480.68
643.07	1370.09
643.27	1429.48
643.47	1454.06
643.67	1427.43
643.87	1374.19
644.07	1415.15
644.27	1468.39
644.47	1355.76
644.67	1447.91
644.87	1411.05
645.07	1339.37
645.27	1368.04
645.47	1382.38
645.67	1421.29
645.87	1388.52
646.07	1366.00
646.27	1421.29
646.47	1482.73
646.67	1411.05
646.87	1394.67
647.06	1372.14
647.26	1439.72
647.46	1366.00
647.66	1384.43
647.86	1445.87
648.06	1388.52
648.26	1454.06
648.46	1351.66
648.66	1476.59
648.86	1413.10
649.06	1400.81
649.26	1314.80
649.46	1429.48
649.66	1402.86
649.86	1376.24
650.06	1345.52
650.25	1419.24
650.45	1394.67
650.65	1294.32
650.85	1427.43
651.05	1378.28
651.25	1339.37
651.45	1454.06
651.65	1417.19
651.85	1427.43
652.05	1466.35
652.25	1437.67
652.45	1488.87
652.64	1492.97
652.84	1445.87
653.04	1480.68
653.24	1437.67
653.44	1486.83
653.64	1515.50
653.84	1439.72
654.04	1449.96
654.24	1355.76
654.44	1470.44
654.63	1419.24
654.83	1402.86
655.03	1486.83
655.23	1464.30
655.43	1529.83
655.63	1486.83
655.83	1474.54
656.03	1411.05
656.22	1523.69
656.42	1474.54
656.62	1544.17
656.82	1605.61
657.02	1738.73
657.22	2127.84
657.42	3074.00
657.62	4433.85
657.81	7690.12
658.01	13104.95
658.21	21739.19
658.41	28741.19
658.61	22730.41
658.81	9889.64
659.01	5414.83
659.20	3295.18
659.40	2459.61
659.60	1966.05
659.80	1708.01
660.00	1730.53
660.20	1605.61
660.39	1503.21
660.59	1462.25
660.79	1435.63
660.99	1540.07
661.19	1480.68
661.39	1492.97
661.58	1419.24
661.78	1449.96
661.98	1390.57
662.18	1366.00
662.38	1503.21
662.58	1435.63
662.77	1458.15
662.97	1425.39
663.17	1409.00
663.37	1486.83
663.57	1435.63
663.77	1456.11
663.96	1447.91
664.16	1417.19
664.36	1417.19
664.56	1462.25
664.76	1378.28
664.95	1384.43
665.15	1435.63
665.35	1421.29
665.55	1390.57
665.75	1425.39
665.94	1394.67
666.14	1439.72
666.34	1505.26
666.54	1472.49
666.74	1386.47
666.93	1425.39
667.13	1343.47
667.33	1343.47
667.53	1378.28
667.72	1439.72
667.92	1378.28
668.12	1462.25
668.32	1452.01
668.52	1374.19
668.71	1402.86
668.91	1447.91
669.11	1398.76
669.31	1372.14
669.50	1443.82
669.70	1431.53
669.90	1398.76
670.10	1361.90
670.29	1486.83
670.49	1452.01
670.69	1404.91
670.89	1425.39
671.08	1439.72
671.28	1402.86
671.48	1402.86
671.68	1484.78
671.87	1382.38
672.07	1406.95
672.27	1320.94
672.47	1431.53
672.66	1368.04
672.86	1378.28
673.06	1363.95
673.26	1452.01
673.45	1474.54
673.65	1386.47
673.85	1302.51
674.05	1343.47
674.24	1419.24
674.44	1486.83
674.64	1394.67
674.83	1400.81
675.03	1351.66
675.23	1415.15
675.43	1366.00
675.62	1394.67
675.82	1327.08
676.02	1384.43
676.21	1439.72
676.41	1396.71
676.61	1380.33
676.81	1374.19
677.00	1376.24
677.20	1417.19
677.40	1339.37
677.59	1449.96
677.79	1339.37
677.99	1421.29
678.18	1406.95
678.38	1368.04
678.58	1378.28
678.78	1339.37
678.97	1406.95
679.17	1404.91
679.37	1402.86
679.56	1351.66
679.76	1409.00
679.96	1290.22
680.15	1386.47
680.35	1384.43
680.55	1384.43
680.74	1388.52
680.94	1406.95
681.14	1411.05
681.33	1347.56
681.53	1345.52
681.73	1425.39
681.92	1380.33
682.12	1404.91
682.32	1433.58
682.51	1310.70
682.71	1402.86
682.91	1431.53
683.10	1390.57
683.30	1320.94
683.50	1333.23
683.69	1368.04
683.89	1390.57
684.08	1433.58
684.28	1363.95
684.48	1445.87
684.67	1392.62
684.87	1327.08
685.07	1402.86
685.26	1370.09
685.46	1402.86
685.66	1421.29
685.85	1351.66
686.05	1363.95
686.24	1380.33
686.44	1431.53
686.64	1374.19
686.83	1322.99
687.03	1370.09
687.23	1382.38
687.42	1320.94
687.62	1355.76
687.81	1370.09
688.01	1396.71
688.21	1421.29
688.40	1415.15
688.60	1376.24
688.79	1296.36
688.99	1380.33
689.19	1329.13
689.38	1441.77
689.58	1421.29
689.77	1363.95
689.97	1406.95
690.17	1353.71
690.36	1421.29
690.56	1314.80
690.75	1359.85
690.95	1392.62
691.15	1370.09
691.34	1366.00
691.54	1372.14
691.73	1277.93
691.93	1273.84
692.12	1378.28
692.32	1363.95
692.52	1327.08
692.71	1298.41
692.91	1347.56
693.10	1404.91
693.30	1298.41
693.49	1384.43
693.69	1417.19
693.89	1351.66
694.08	1234.93
694.28	1351.66
694.47	1368.04
694.67	1345.52
694.86	1314.80
695.06	1390.57
695.25	1366.00
695.45	1343.47
695.65	1423.34
695.84	1284.08
696.04	1361.90
696.23	1372.14
696.43	1402.86
696.62	1372.14
696.82	1359.85
697.01	1345.52
697.21	1339.37
697.40	1288.17
697.60	1347.56
697.79	1415.15
697.99	1312.75
698.18	1359.85
698.38	1327.08
698.58	1343.47
698.77	1372.14
698.97	1337.32
699.16	1355.76
699.36	1337.32
699.55	1355.76
699.75	1388.52
699.94	1343.47
700.14	1322.99
700.33	1366.00
700.53	1413.10
700.72	1267.69
700.92	1359.85
701.11	1372.14
701.31	1316.84
701.50	1406.95
701.70	1325.04
701.89	1296.36
702.09	1329.13
702.28	1378.28
702.48	1318.89
702.67	1347.56
702.87	1322.99
703.06	1333.23
703.25	1419.24
703.45	1411.05
703.64	1318.89
703.84	1378.28
704.03	1386.47
704.23	1279.98
704.42	1351.66
704.62	1341.42
704.81	1400.81
705.01	1341.42
705.20	1308.65
705.40	1382.38
705.59	1415.15
705.79	1331.18
705.98	1351.66
706.18	1333.23
706.37	1470.44
706.56	1386.47
706.76	1370.09
706.95	1353.71
707.15	1327.08
707.34	1382.38
707.54	1390.57
707.73	1308.65
707.93	1384.43
708.12	1339.37
708.31	1310.70
708.51	1396.71
708.70	1441.77
708.90	1421.29
709.09	1286.12
709.29	1312.75
709.48	1322.99
709.67	1224.69
709.87	1304.56
710.06	1296.36
710.26	1417.19
710.45	1361.90
710.65	1386.47
710.84	1464.30
711.03	1376.24
711.23	1286.12
711.42	1349.61
711.62	1372.14
711.81	1359.85
712.00	1310.70
712.20	1376.24
712.39	1370.09
712.59	1368.04
712.78	1415.15
712.97	1337.32
713.17	1452.01
713.36	1398.76
713.56	1386.47
713.75	1427.43
713.94	1333.23
714.14	1380.33
714.33	1290.22
714.53	1394.67
714.72	1351.66
714.91	1427.43
715.11	1339.37
715.30	1392.62
715.49	1310.70
715.69	1384.43
715.88	1359.85
716.08	1435.63
716.27	1429.48
716.46	1388.52
716.66	1357.80
716.85	1388.52
717.04	1413.10
717.24	1316.84
717.43	1376.24
717.62	1490.92
717.82	1361.90
718.01	1370.09
718.20	1402.86
718.40	1363.95
718.59	1402.86
718.79	1366.00
718.98	1320.94
719.17	1347.56
719.37	1437.67
719.56	1335.28
719.75	1394.67
719.95	1359.85
720.14	1406.95
720.33	1388.52
720.53	1402.86
720.72	1335.28
720.91	1388.52
721.11	1357.80
721.30	1269.74
721.49	1452.01
721.69	1396.71
721.88	1329.13
722.07	1400.81
722.26	1347.56
722.46	1425.39
722.65	1398.76
722.84	1396.71
723.04	1415.15
723.23	1433.58
723.42	1409.00
723.62	1363.95
723.81	1411.05
724.00	1413.10
724.20	1386.47
724.39	1331.18
724.58	1341.42
724.77	1417.19
724.97	1359.85
725.16	1443.82
725.35	1363.95
725.55	1304.56
725.74	1382.38
725.93	1368.04
726.12	1392.62
726.32	1425.39
726.51	1437.67
726.70	1556.46
726.90	1400.81
727.09	1355.76
727.28	1402.86
727.47	1468.39
727.67	1380.33
727.86	1361.90
728.05	1343.47
728.24	1345.52
728.44	1384.43
728.63	1335.28
728.82	1357.80
729.02	1366.00
729.21	1406.95
729.40	1409.00
729.59	1370.09
729.79	1366.00
729.98	1441.77
730.17	1464.30
730.36	1415.15
730.56	1353.71
730.75	1431.53
730.94	1355.76
731.13	1417.19
731.32	1396.71
731.52	1308.65
731.71	1394.67
731.90	1337.32
732.09	1368.04
732.29	1409.00
732.48	1320.94
732.67	1458.15
732.86	1454.06
733.06	1366.00
733.25	1380.33
733.44	1452.01
733.63	1384.43
733.82	1380.33
734.02	1409.00
734.21	1355.76
734.40	1437.67
734.59	1394.67
734.78	1435.63
734.98	1443.82
735.17	1398.76
735.36	1331.18
735.55	1370.09
735.75	1355.76
735.94	1386.47
736.13	1359.85
736.32	1396.71
736.51	1392.62
736.70	1392.62
736.90	1417.19
737.09	1374.19
737.28	1392.62
737.47	1427.43
737.66	1394.67
737.86	1402.86
738.05	1413.10
738.24	1349.61
738.43	1447.91
738.62	1372.14
738.81	1357.80
739.01	1468.39
739.20	1376.24
739.39	1495.02
739.58	1320.94
739.77	1384.43
739.96	1349.61
740.16	1454.06
740.35	1394.67
740.54	1476.59
740.73	1390.57
740.92	1384.43
741.11	1380.33
741.31	1468.39
741.50	1333.23
741.69	1359.85
741.88	1409.00
742.07	1402.86
742.26	1376.24
742.45	1374.19
742.65	1355.76
742.84	1355.76
743.03	1353.71
743.22	1390.57
743.41	1425.39
743.60	1318.89
743.79	1374.19
743.98	1409.00
744.18	1468.39
744.37	1466.35
744.56	1392.62
744.75	1402.86
744.94	1417.19
745.13	1421.29
745.32	1337.32
745.51	1386.47
745.71	1628.14
745.90	1507.30
746.09	1554.41
746.28	1564.65
746.47	1566.70
746.66	1517.54
746.85	1419.24
747.04	1488.87
747.23	1499.11
747.42	1396.71
747.62	1380.33
747.81	1439.72
748.00	1435.63
748.19	1546.22
748.38	1597.42
748.57	1671.14
748.76	1634.28
748.95	1607.66
749.14	1564.65
749.33	1458.15
749.52	1447.91
749.71	1435.63
749.91	1363.95
750.10	1429.48
750.29	1347.56
750.48	1454.06
750.67	1443.82
750.86	1374.19
751.05	1394.67
751.24	1339.37
751.43	1445.87
751.62	1437.67
751.81	1458.15
752.00	1429.48
752.19	1392.62
752.38	1396.71
752.57	1499.11
752.76	1388.52
752.96	1423.34
753.15	1386.47
753.34	1409.00
753.53	1372.14
753.72	1423.34
753.91	1419.24
754.10	1441.77
754.29	1396.71
754.48	1353.71
754.67	1409.00
754.86	1427.43
755.05	1322.99
755.24	1409.00
755.43	1437.67
755.62	1374.19
755.81	1353.71
756.00	1396.71
756.19	1359.85
756.38	1433.58
756.57	1411.05
756.76	1468.39
756.95	1349.61
757.14	1429.48
757.33	1406.95
757.52	1462.25
757.71	1456.11
757.90	1406.95
758.09	1400.81
758.28	1486.83
758.47	1417.19
758.66	1486.83
758.85	1368.04
759.04	1464.30
759.23	1417.19
759.42	1400.81
759.61	1376.24
759.80	1382.38
759.99	1456.11
760.18	1433.58
760.37	1378.28
760.56	1378.28
760.75	1388.52
760.94	1462.25
761.13	1386.47
761.32	1333.23
761.51	1357.80
761.70	1495.02
761.89	1470.44
762.08	1368.04
762.27	1294.32
762.46	1345.52
762.65	1449.96
762.84	1409.00
763.03	1476.59
763.22	1417.19
763.41	1337.32
763.59	1396.71
763.78	1355.76
763.97	1429.48
764.16	1341.42
764.35	1415.15
764.54	1449.96
764.73	1435.63
764.92	1394.67
765.11	1378.28
765.30	1302.51
765.49	1353.71
765.68	1380.33
765.87	1368.04
766.06	1415.15
766.25	1503.21
766.44	1368.04
766.62	1386.47
766.81	1388.52
767.00	1380.33
767.19	1363.95
767.38	1396.71
767.57	1372.14
767.76	1370.09
767.95	1366.00
768.14	1351.66
768.33	1376.24
768.52	1476.59
768.71	1476.59
768.89	1400.81
769.08	1300.46
769.27	1363.95
769.46	1337.32
769.65	1445.87
769.84	1396.71
770.03	1347.56
770.22	1357.80
770.41	1429.48
770.60	1388.52
770.78	1314.80
770.97	1357.80
771.16	1378.28
771.35	1386.47
771.54	1394.67
771.73	1345.52
771.92	1429.48
772.11	1380.33
772.29	1427.43
772.48	1437.67
772.67	1351.66
772.86	1402.86
773.05	1423.34
773.24	1378.28
773.43	1359.85
773.61	1396.71
773.80	1417.19
773.99	1376.24
774.18	1419.24
774.37	1413.10
774.56	1472.49
774.75	1402.86
774.93	1282.03
775.12	1353.71
775.31	1462.25
775.50	1376.24
775.69	1355.76
775.88	1404.91
776.07	1400.81
776.25	1468.39
776.44	1392.62
776.63	1400.81
776.82	1370.09
777.01	1372.14
777.20	1392.62
777.38	1357.80
777.57	1271.79
777.76	1349.61
777.95	1392.62
778.14	1331.18
778.32	1376.24
778.51	1386.47
778.70	1359.85
778.89	1449.96
779.08	1429.48
779.27	1402.86
779.45	1398.76
779.64	1472.49
779.83	1419.24
780.02	1333.23
780.21	1294.32
780.39	1427.43
780.58	1378.28
780.77	1316.84
780.96	1378.28
781.15	1409.00
781.33	1304.56
781.52	1318.89
781.71	1361.90
781.90	1339.37
782.09	1388.52
782.27	1335.28
782.46	1286.12
782.65	1333.23
782.84	1388.52
783.02	1372.14
783.21	1366.00
783.40	1423.34
783.59	1388.52
783.78	1372.14
783.96	1286.12
784.15	1443.82
784.34	1290.22
784.53	1351.66
784.71	1390.57
784.90	1327.08
785.09	1441.77
785.28	1372.14
785.46	1310.70
785.65	1433.58
785.84	1400.81
786.03	1368.04
786.21	1361.90
786.40	1316.84
786.59	1302.51
786.78	1347.56
786.96	1306.60
787.15	1341.42
787.34	1368.04
787.53	1363.95
787.71	1294.32
787.90	1363.95
788.09	1296.36
788.27	1284.08
788.46	1345.52
788.65	1374.19
788.84	1341.42
789.02	1378.28
789.21	1349.61
789.40	1339.37
789.59	1435.63
789.77	1398.76
789.96	1363.95
790.15	1363.95
790.33	1384.43
790.52	1277.93
790.71	1368.04
790.89	1304.56
791.08	1386.47
791.27	1357.80
791.46	1376.24
791.64	1361.90
791.83	1370.09
792.02	1413.10
792.20	1345.52
792.39	1456.11
792.58	1368.04
792.76	1312.75
792.95	1368.04
793.14	1390.57
793.33	1275.88
793.51	1320.94
793.70	1378.28
793.89	1265.64
794.07	1445.87
794.26	1370.09
794.45	1302.51
794.63	1363.95
794.82	1404.91
795.01	1335.28
795.19	1302.51
795.38	1363.95
795.57	1417.19
795.75	1447.91
795.94	1284.08
796.13	1351.66
796.31	1417.19
796.50	1380.33
796.68	1368.04
796.87	1322.99
797.06	1284.08
797.24	1363.95
797.43	1388.52
797.62	1296.36
797.80	1454.06
797.99	1351.66
798.18	1351.66
798.36	1292.27
798.55	1445.87
798.74	1306.60
798.92	1353.71
799.11	1361.90
799.29	1445.87
799.48	1335.28
799.67	1361.90
799.85	1363.95
800.04	1386.47
800.23	1320.94
800.41	1298.41
800.60	1376.24
800.78	1277.93
800.97	1363.95
801.16	1261.55
801.34	1406.95
801.53	1366.00
801.71	1376.24
801.90	1378.28
802.09	1335.28
802.27	1382.38
802.46	1355.76
802.64	1357.80
802.83	1400.81
803.02	1366.00
803.20	1392.62
803.39	1392.62
803.57	1394.67
803.76	1378.28
803.95	1269.74
804.13	1411.05
804.32	1419.24
804.50	1327.08
804.69	1304.56
804.87	1318.89
805.06	1337.32
805.25	1337.32
805.43	1384.43
805.62	1325.04
805.80	1349.61
805.99	1337.32
806.17	1361.90
806.36	1343.47
806.55	1351.66
806.73	1413.10
806.92	1269.74
807.10	1286.12
807.29	1335.28
807.47	1345.52
807.66	1361.90
807.84	1284.08
808.03	1322.99
808.22	1388.52
808.40	1394.67
808.59	1361.90
808.77	1355.76
808.96	1316.84
809.14	1353.71
809.33	1413.10
809.51	1392.62
809.70	1277.93
809.88	1304.56
810.07	1396.71
810.25	1308.65
810.44	1351.66
810.62	1351.66
810.81	1384.43
811.00	1241.07
811.18	1392.62
811.37	1351.66
811.55	1443.82
811.74	1411.05
811.92	1409.00
812.11	1447.91
812.29	1431.53
812.48	1335.28
812.66	1370.09
812.85	1316.84
813.03	1361.90
813.22	1423.34
813.40	1277.93
813.59	1361.90
813.77	1339.37
813.96	1341.42
814.14	1347.56
814.33	1333.23
814.51	1380.33
814.70	1376.24
814.88	1349.61
815.06	1366.00
815.25	1363.95
815.43	1284.08
815.62	1390.57
815.80	1279.98
815.99	1277.93
816.17	1384.43
816.36	1359.85
816.54	1343.47
816.73	1349.61
816.91	1398.76
817.10	1386.47
817.28	1353.71
817.47	1306.60
817.65	1294.32
817.83	1314.80
818.02	1363.95
818.20	1392.62
818.39	1443.82
818.57	1308.65
818.76	1372.14
818.94	1372.14
819.13	1331.18
819.31	1357.80
819.50	1277.93
819.68	1329.13
819.86	1390.57
820.05	1409.00
820.23	1359.85
820.42	1396.71
820.60	1409.00
820.79	1441.77
820.97	1404.91
821.15	1320.94
821.34	1361.90
821.52	1376.24
821.71	1333.23
821.89	1378.28
822.07	1417.19
822.26	1417.19
822.44	1351.66
822.63	1409.00
822.81	1441.77
823.00	1423.34
823.18	1468.39
823.36	1427.43
823.55	1423.34
823.73	1402.86
823.92	1468.39
824.10	1388.52
824.28	1394.67
824.47	1325.04
824.65	1308.65
824.84	1431.53
825.02	1343.47
825.20	1386.47
825.39	1335.28
825.57	1366.00
825.75	1439.72
825.94	1417.19
826.12	1374.19
826.31	1384.43
826.49	1378.28
826.67	1425.39
826.86	1417.19
827.04	1404.91
827.22	1341.42
827.41	1398.76
827.59	1366.00
827.77	1384.43
827.96	1275.88
828.14	1286.12
828.33	1333.23
828.51	1294.32
828.69	1390.57
828.88	1435.63
829.06	1372.14
829.24	1349.61
829.43	1325.04
829.61	1320.94
829.79	1386.47
829.98	1331.18
830.16	1374.19
830.34	1388.52
830.53	1314.80
830.71	1390.57
830.89	1413.10
831.08	1374.19
831.26	1398.76
831.44	1380.33
831.63	1312.75
831.81	1406.95
831.99	1368.04
832.18	1298.41
832.36	1341.42
832.54	1361.90
832.73	1318.89
832.91	1347.56
833.09	1366.00
833.28	1372.14
833.46	1378.28
833.64	1343.47
833.82	1353.71
834.01	1357.80
834.19	1376.24
834.37	1406.95
834.56	1290.22
834.74	1370.09
834.92	1392.62
835.11	1404.91
835.29	1347.56
835.47	1353.71
835.65	1392.62
835.84	1441.77
836.02	1384.43
836.20	1396.71
836.39	1368.04
836.57	1413.10
836.75	1261.55
836.93	1318.89
837.12	1425.39
837.30	1304.56
837.48	1376.24
837.66	1368.04
837.85	1314.80
838.03	1347.56
838.21	1409.00
838.39	1325.04
838.58	1388.52
838.76	1349.61
838.94	1415.15
839.13	1363.95
839.31	1304.56
839.49	1394.67
839.67	1411.05
839.86	1353.71
840.04	1435.63
840.22	1327.08
840.40	1282.03
840.58	1333.23
840.77	1337.32
840.95	1413.10
841.13	1347.56
841.31	1345.52
841.50	1335.28
841.68	1318.89
841.86	1343.47
842.04	1402.86
842.23	1318.89
842.41	1357.80
842.59	1384.43
842.77	1355.76
842.95	1433.58
843.14	1378.28
843.32	1376.24
843.50	1343.47
843.68	1339.37
843.87	1372.14
844.05	1417.19
844.23	1394.67
844.41	1325.04
844.59	1333.23
844.78	1312.75
844.96	1312.75
845.14	1392.62
845.32	1359.85
845.50	1347.56
845.69	1343.47
845.87	1349.61
846.05	1359.85
846.23	1292.27
846.41	1368.04
846.59	1339.37
846.78	1271.79
846.96	1392.62
847.14	1374.19
847.32	1322.99
847.50	1382.38
847.68	1333.23
847.87	1361.90
848.05	1398.76
848.23	1382.38
848.41	1292.27
848.59	1349.61
848.77	1402.86
848.96	1359.85
849.14	1404.91
849.32	1431.53
849.50	1314.80
849.68	1341.42
849.86	1368.04
850.05	1437.67
850.23	1273.84
850.41	1359.85
850.59	1327.08
850.77	1413.10
850.95	1310.70
851.13	1361.90
851.32	1437.67
851.50	1392.62
851.68	1382.38
851.86	1351.66
852.04	1331.18
852.22	1349.61
852.40	1310.70
852.58	1339.37
852.77	1392.62
852.95	1325.04
853.13	1318.89
853.31	1404.91
853.49	1392.62
853.67	1458.15
853.85	1357.80
854.03	1402.86
854.22	1361.90
854.40	1409.00
854.58	1308.65
854.76	1312.75
854.94	1421.29
855.12	1322.99
855.30	1347.56
855.48	1361.90
855.66	1372.14
855.84	1351.66
856.03	1406.95
856.21	1423.34
856.39	1327.08
856.57	1290.22
856.75	1419.24
856.93	1390.57
857.11	1374.19
857.29	1363.95
857.47	1384.43
857.65	1429.48
857.83	1384.43
858.01	1427.43
858.19	1392.62
858.38	1421.29
858.56	1396.71
858.74	1370.09
858.92	1382.38
859.10	1327.08
859.28	1409.00
859.46	1337.32
859.64	1341.42
859.82	1308.65
860.00	1353.71
860.18	1359.85
860.36	1486.83
860.54	1363.95
860.72	1417.19
860.90	1472.49
861.08	1374.19
861.26	1327.08
861.44	1402.86
861.62	1357.80
861.81	1386.47
861.99	1425.39
862.17	1312.75
862.35	1306.60
862.53	1425.39
862.71	1341.42
862.89	1368.04
863.07	1339.37
863.25	1392.62
863.43	1394.67
863.61	1429.48
863.79	1296.36
863.97	1347.56
864.15	1374.19
864.33	1374.19
864.51	1441.77
864.69	1361.90
864.87	1378.28
865.05	1458.15
865.23	1392.62
865.41	1327.08
865.59	1388.52
865.77	1368.04
865.95	1320.94
866.13	1390.57
866.31	1380.33
866.49	1417.19
866.67	1316.84
866.85	1343.47
867.03	1390.57
867.21	1355.76
867.39	1368.04
867.57	1366.00
867.75	1400.81
867.93	1370.09
868.11	1392.62
868.29	1413.10
868.47	1443.82
868.65	1325.04
868.83	1409.00
869.00	1382.38
869.18	1402.86
869.36	1447.91
869.54	1490.92
869.72	1509.35
869.90	1495.02
870.08	1525.74
870.26	1474.54
870.44	1492.97
870.62	1427.43
870.80	1443.82
870.98	1456.11
871.16	1392.62
871.34	1449.96
871.52	1376.24
871.70	1501.16
871.88	1392.62
872.06	1398.76
872.24	1429.48
872.41	1423.34
872.59	1378.28
872.77	1353.71
872.95	1378.28
873.13	1449.96
873.31	1419.24
873.49	1409.00
873.67	1411.05
873.85	1380.33
874.03	1343.47
874.21	1486.83
874.39	1359.85
874.57	1361.90
874.74	1351.66
874.92	1454.06
875.10	1437.67
875.28	1429.48
875.46	1394.67
875.64	1331.18
875.82	1368.04
876.00	1345.52
876.18	1435.63
876.36	1378.28
876.53	1392.62
876.71	1409.00
876.89	1349.61
877.07	1386.47
877.25	1421.29
877.43	1359.85
877.61	1341.42
877.79	1343.47
877.96	1382.38
878.14	1312.75
878.32	1282.03
878.50	1284.08
878.68	1447.91
878.86	1441.77
879.04	1236.97
879.22	1310.70
879.39	1423.34
879.57	1392.62
879.75	1339.37
879.93	1372.14
880.11	1312.75
880.29	1351.66
880.47	1294.32
880.64	1359.85
880.82	1384.43
881.00	1359.85
881.18	1386.47
881.36	1402.86
881.54	1419.24
881.71	1409.00
881.89	1288.17
882.07	1378.28
882.25	1376.24
882.43	1402.86
882.61	1427.43
882.78	1361.90
882.96	1296.36
883.14	1443.82
883.32	1286.12
883.50	1437.67
883.68	1392.62
883.85	1417.19
884.03	1359.85
884.21	1353.71
884.39	1322.99
884.57	1392.62
884.75	1386.47
884.92	1320.94
885.10	1368.04
885.28	1363.95
885.46	1376.24
885.64	1384.43
885.81	1361.90
885.99	1357.80
886.17	1386.47
886.35	1341.42
886.53	1402.86
886.70	1359.85
886.88	1419.24
887.06	1351.66
887.24	1386.47
887.41	1427.43
887.59	1376.24
887.77	1443.82
887.95	1294.32
888.13	1523.69
888.30	1310.70
888.48	1458.15
888.66	1429.48
888.84	1361.90
889.01	1363.95
889.19	1402.86
889.37	1322.99
889.55	1345.52
889.72	1374.19
889.90	1331.18
890.08	1347.56
890.26	1353.71
890.43	1357.80
890.61	1404.91
890.79	1480.68
890.97	1335.28
891.14	1374.19
891.32	1388.52
891.50	1384.43
891.68	1359.85
891.85	1322.99
892.03	1333.23
892.21	1337.32
892.39	1372.14
892.56	1363.95
892.74	1413.10
892.92	1302.51
893.10	1308.65
893.27	1331.18
893.45	1402.86
893.63	1378.28
893.80	1355.76
893.98	1288.17
894.16	1388.52
894.34	1361.90
894.51	1337.32
894.69	1320.94
894.87	1370.09
895.04	1329.13
895.22	1322.99
895.40	1363.95
895.58	1378.28
895.75	1374.19
895.93	1413.10
896.11	1411.05
896.28	1335.28
896.46	1316.84
896.64	1402.86
896.81	1325.04
896.99	1341.42
897.17	1413.10
897.34	1273.84
897.52	1335.28
897.70	1380.33
897.88	1357.80
898.05	1368.04
898.23	1339.37
898.41	1349.61
898.58	1355.76
898.76	1402.86
898.94	1318.89
899.11	1308.65
899.29	1435.63
899.47	1304.56
899.64	1286.12
899.82	1378.28
900.00	1357.80
900.17	1339.37
900.35	1361.90
900.52	1320.94
900.70	1316.84
900.88	1341.42
901.05	1296.36
901.23	1357.80
901.41	1349.61
901.58	1366.00
901.76	1329.13
901.94	1339.37
902.11	1300.46
902.29	1370.09
902.47	1404.91
902.64	1404.91
902.82	1470.44
902.99	1316.84
903.17	1388.52
903.35	1341.42
903.52	1447.91
903.70	1382.38
903.88	1400.81
904.05	1284.08
904.23	1347.56
904.40	1474.54
904.58	1368.04
904.76	1361.90
904.93	1388.52
905.11	1406.95
905.28	1343.47
905.46	1351.66
905.64	1292.27
905.81	1421.29
905.99	1345.52
906.16	1327.08
906.34	1382.38
906.52	1329.13
906.69	1353.71
906.87	1378.28
907.04	1368.04
907.22	1402.86
907.40	1288.17
907.57	1376.24
907.75	1329.13
907.92	1421.29
908.10	1359.85
908.27	1368.04
908.45	1312.75
908.63	1384.43
908.80	1284.08
908.98	1259.50
909.15	1384.43
909.33	1368.04
909.50	1398.76
909.68	1337.32
909.86	1345.52
910.03	1368.04
910.21	1329.13
910.38	1435.63
910.56	1357.80
910.73	1427.43
910.91	1331.18
911.08	1380.33
911.26	1392.62
911.43	1335.28
911.61	1359.85
911.79	1329.13
911.96	1359.85
912.14	1400.81
912.31	1292.27
912.49	1368.04
912.66	1394.67
912.84	1363.95
913.01	1312.75
913.19	1308.65
913.36	1343.47
913.54	1353.71
913.71	1386.47
913.89	1267.69
914.06	1415.15
914.24	1304.56
914.41	1406.95
914.59	1359.85
914.76	1290.22
914.94	1320.94
915.11	1349.61
915.29	1361.90
915.46	1331.18
915.64	1374.19
915.81	1396.71
915.99	1349.61
916.16	1284.08
916.34	1320.94
916.51	1347.56
916.69	1368.04
916.86	1380.33
917.04	1329.13
917.21	1384.43
917.39	1310.70
917.56	1402.86
917.74	1335.28
917.91	1372.14
918.09	1396.71
918.26	1376.24
918.44	1368.04
918.61	1357.80
918.79	1339.37
918.96	1341.42
919.14	1343.47
919.31	1384.43
919.48	1409.00
919.66	1277.93
919.83	1370.09
920.01	1396.71
920.18	1298.41
920.36	1441.77
920.53	1404.91
920.71	1318.89
920.88	1351.66
921.05	1417.19
921.23	1327.08
921.40	1333.23
921.58	1331.18
921.75	1363.95
921.93	1325.04
922.10	1331.18
922.28	1300.46
922.45	1339.37
922.62	1320.94
922.80	1339.37
922.97	1419.24
923.15	1261.55
923.32	1384.43
923.50	1335.28
923.67	1343.47
923.84	1386.47
924.02	1441.77
924.19	1435.63
924.37	1300.46
924.54	1279.98
924.71	1320.94
924.89	1341.42
925.06	1400.81
925.24	1439.72
925.41	1380.33
925.58	1425.39
925.76	1247.21
925.93	1286.12
926.11	1349.61
926.28	1255.40
926.45	1359.85
926.63	1449.96
926.80	1335.28
926.98	1361.90
927.15	1415.15
927.32	1400.81
927.50	1320.94
927.67	1331.18
927.84	1322.99
928.02	1382.38
928.19	1382.38
928.37	1368.04
928.54	1339.37
928.71	1341.42
928.89	1468.39
929.06	1333.23
929.23	1339.37
929.41	1400.81
929.58	1449.96
929.75	1351.66
929.93	1390.57
930.10	1400.81
930.27	1378.28
930.45	1384.43
930.62	1388.52
930.79	1388.52
930.97	1279.98
931.14	1339.37
931.31	1380.33
931.49	1388.52
931.66	1335.28
931.83	1374.19
932.01	1318.89
932.18	1359.85
932.35	1298.41
932.53	1329.13
932.70	1294.32
932.87	1347.56
933.05	1318.89
933.22	1425.39
933.39	1386.47
933.57	1292.27
933.74	1327.08
933.91	1363.95
934.09	1339.37
934.26	1374.19
934.43	1366.00
934.61	1372.14
934.78	1372.14
934.95	1368.04
935.12	1320.94
935.30	1388.52
935.47	1288.17
935.64	1343.47
935.82	1398.76
935.99	1320.94
936.16	1284.08
936.34	1384.43
936.51	1376.24
936.68	1335.28
936.85	1382.38
937.03	1355.76
937.20	1396.71
937.37	1415.15
937.54	1353.71
937.72	1312.75
937.89	1359.85
938.06	1359.85
938.24	1370.09
938.41	1343.47
938.58	1413.10
938.75	1325.04
938.93	1404.91
939.10	1388.52
939.27	1357.80
939.44	1366.00
939.62	1312.75
939.79	1382.38
939.96	1394.67
940.13	1296.36
940.31	1343.47
940.48	1406.95
940.65	1361.90
940.82	1431.53
941.00	1322.99
941.17	1402.86
941.34	1417.19
941.51	1337.32
941.68	1294.32
941.86	1368.04
942.03	1337.32
942.20	1306.60
942.37	1384.43
942.55	1322.99
942.72	1388.52
942.89	1294.32
943.06	1304.56
943.23	1384.43
943.41	1380.33
943.58	1415.15
943.75	1337.32
943.92	1374.19
944.10	1286.12
944.27	1347.56
944.44	1267.69
944.61	1333.23
944.78	1335.28
944.95	1392.62
945.13	1384.43
945.30	1366.00
945.47	1351.66
945.64	1366.00
945.81	1343.47
945.99	1425.39
946.16	1351.66
946.33	1372.14
946.50	1370.09
946.67	1345.52
946.85	1312.75
947.02	1314.80
947.19	1363.95
947.36	1331.18
947.53	1404.91
947.70	1304.56
947.88	1419.24
948.05	1406.95
948.22	1331.18
948.39	1390.57
948.56	1361.90
948.73	1388.52
948.90	1372.14
949.08	1345.52
949.25	1376.24
949.42	1333.23
949.59	1421.29
949.76	1351.66
949.93	1335.28
950.11	1335.28
950.28	1351.66
950.45	1310.70
950.62	1327.08
950.79	1427.43
950.96	1314.80
951.13	1327.08
951.30	1333.23
951.48	1390.57
951.65	1351.66
951.82	1294.32
951.99	1255.40
952.16	1372.14
952.33	1322.99
952.50	1302.51
952.67	1296.36
952.85	1347.56
953.02	1345.52
953.19	1337.32
953.36	1304.56
953.53	1337.32
953.70	1357.80
953.87	1366.00
954.04	1394.67
954.21	1316.84
954.38	1255.40
954.56	1335.28
954.73	1359.85
954.90	1349.61
955.07	1425.39
955.24	1329.13
955.41	1376.24
955.58	1388.52
955.75	1372.14
955.92	1357.80
956.09	1370.09
956.26	1327.08
956.43	1347.56
956.61	1390.57
956.78	1396.71
956.95	1388.52
957.12	1320.94
957.29	1333.23
957.46	1406.95
957.63	1351.66
957.80	1286.12
957.97	1527.78
958.14	1347.56
958.31	1366.00
958.48	1357.80
958.65	1396.71
958.82	1306.60
958.99	1331.18
959.16	1370.09
959.33	1288.17
959.51	1353.71
959.68	1279.98
959.85	1353.71
960.02	1306.60
960.19	1310.70
960.36	1390.57
960.53	1390.57
960.70	1353.71
960.87	1370.09
961.04	1351.66
961.21	1322.99
961.38	1361.90
961.55	1406.95
961.72	1343.47
961.89	1351.66
962.06	1366.00
962.23	1269.74
962.40	1374.19
962.57	1347.56
962.74	1300.46
962.91	1443.82
963.08	1396.71
963.25	1380.33
963.42	1353.71
963.59	1304.56
963.76	1335.28
963.93	1329.13
964.10	1374.19
964.27	1345.52
964.44	1423.34
964.61	1370.09
964.78	1374.19
964.95	1363.95
965.12	1343.47
965.29	1380.33
965.46	1312.75
965.63	1419.24
965.80	1347.56
965.97	1320.94
966.14	1398.76
966.31	1314.80
966.48	1349.61
966.65	1427.43
966.82	1316.84
966.99	1355.76
967.16	1394.67
967.32	1468.39
967.49	1302.51
967.66	1394.67
967.83	1320.94
968.00	1339.37
968.17	1282.03
968.34	1392.62
968.51	1284.08
968.68	1343.47
968.85	1351.66
969.02	1349.61
969.19	1398.76
969.36	1310.70
969.53	1357.80
969.70	1318.89
969.87	1386.47
970.04	1421.29
970.21	1404.91
970.37	1316.84
970.54	1306.60
970.71	1353.71
970.88	1347.56
971.05	1404.91
971.22	1331.18
971.39	1376.24
971.56	1368.04
971.73	1400.81
971.90	1390.57
972.07	1394.67
972.23	1351.66
972.40	1361.90
972.57	1380.33
972.74	1353.71
972.91	1406.95
973.08	1351.66
973.25	1423.34
973.42	1320.94
973.59	1398.76
973.76	1349.61
973.92	1394.67
974.09	1394.67
974.26	1320.94
974.43	1331.18
974.60	1335.28
974.77	1343.47
974.94	1357.80
975.11	1339.37
975.27	1296.36
975.44	1290.22
975.61	1306.60
975.78	1339.37
975.95	1327.08
976.12	1380.33
976.29	1320.94
976.46	1331.18
976.62	1343.47
976.79	1415.15
976.96	1368.04
977.13	1372.14
977.30	1357.80
977.47	1329.13
977.64	1325.04
977.80	1380.33
977.97	1368.04
978.14	1370.09
978.31	1370.09
978.48	1384.43
978.65	1273.84
978.81	1343.47
978.98	1372.14
979.15	1404.91
979.32	1345.52
979.49	1339.37
979.66	1320.94
979.82	1325.04
979.99	1345.52
980.16	1343.47
980.33	1308.65
980.50	1394.67
980.66	1349.61
980.83	1384.43
981.00	1316.84
981.17	1300.46
981.34	1357.80
981.50	1363.95
981.67	1341.42
981.84	1361.90
982.01	1384.43
982.18	1378.28
982.34	1322.99
982.51	1345.52
982.68	1314.80
982.85	1351.66
983.02	1316.84
983.18	1288.17
983.35	1339.37
983.52	1331.18
983.69	1300.46
983.86	1368.04
984.02	1431.53
984.19	1394.67
984.36	1345.52
984.53	1380.33
984.69	1329.13
984.86	1333.23
985.03	1363.95
985.20	1347.56
985.37	1314.80
985.53	1431.53
985.70	1411.05
985.87	1353.71
986.04	1337.32
986.20	1376.24
986.37	1361.90
986.54	1368.04
986.71	1345.52
986.87	1322.99
987.04	1392.62
987.21	1329.13
987.38	1431.53
987.54	1343.47
987.71	1314.80
987.88	1378.28
988.04	1349.61
988.21	1351.66
988.38	1394.67
988.55	1404.91
988.71	1361.90
988.88	1322.99
989.05	1331.18
989.22	1441.77
989.38	1351.66
989.55	1396.71
989.72	1382.38
989.88	1361.90
990.05	1349.61
990.22	1392.62
990.39	1284.08
990.55	1415.15
990.72	1241.07
990.89	1435.63
991.05	1363.95
991.22	1329.13
991.39	1314.80
991.55	1396.71
991.72	1439.72
991.89	1302.51
992.06	1366.00
992.22	1400.81
992.39	1300.46
992.56	1333.23
992.72	1331.18
992.89	1322.99
993.06	1386.47
993.22	1439.72
993.39	1314.80
993.56	1304.56
993.72	1322.99
993.89	1376.24
994.06	1366.00
994.22	1366.00
994.39	1300.46
994.56	1312.75
994.72	1312.75
994.89	1417.19
995.06	1384.43
995.22	1353.71
995.39	1308.65
995.56	1312.75
995.72	1249.26
995.89	1351.66
996.06	1390.57
996.22	1284.08
996.39	1263.60
996.55	1351.66
996.72	1318.89
996.89	1300.46
997.05	1363.95
997.22	1351.66
997.39	1376.24
997.55	1361.90
997.72	1327.08
997.89	1388.52
998.05	1394.67
998.22	1337.32
998.38	1409.00
998.55	1378.28
998.72	1320.94
998.88	1411.05
999.05	1384.43
999.21	1378.28
999.38	1339.37
999.55	1351.66
999.71	1329.13
999.88	1304.56
1000.05	1347.56
1000.21	1372.14
1000.38	1343.47
1000.54	1366.00
1000.71	1402.86
1000.88	1374.19
1001.04	1310.70
1001.21	1310.70
1001.37	1353.71
1001.54	1290.22
1001.70	1335.28
1001.87	1310.70
1002.04	1316.84
1002.20	1376.24
1002.37	1310.70
1002.53	1370.09
1002.70	1357.80
1002.86	1445.87
1003.03	1396.71
1003.20	1427.43
1003.36	1353.71
1003.53	1382.38
1003.69	1388.52
1003.86	1374.19
1004.02	1361.90
1004.19	1423.34
1004.36	1314.80
1004.52	1310.70
1004.69	1386.47
1004.85	1296.36
1005.02	1345.52
1005.18	1361.90
1005.35	1337.32
1005.51	1347.56
1005.68	1314.80
1005.84	1282.03
1006.01	1310.70
1006.18	1357.80
1006.34	1372.14
1006.51	1409.00
1006.67	1363.95
1006.84	1384.43
1007.00	1265.64
1007.17	1294.32
1007.33	1363.95
1007.50	1335.28
1007.66	1331.18
1007.83	1249.26
1007.99	1271.79
1008.16	1380.33
1008.32	1359.85
1008.49	1390.57
1008.65	1386.47
1008.82	1335.28
1008.98	1355.76
1009.15	1300.46
1009.31	1341.42
1009.48	1409.00
1009.64	1333.23
1009.81	1445.87
1009.97	1378.28
1010.14	1339.37
1010.30	1343.47
1010.47	1310.70
1010.63	1429.48
1010.80	1349.61
1010.96	1339.37
1011.13	1331.18
1011.29	1419.24
1011.46	1378.28
1011.62	1322.99
1011.79	1363.95
1011.95	1343.47
1012.12	1277.93
1012.28	1374.19
1012.44	1327.08
1012.61	1386.47
1012.77	1351.66
1012.94	1378.28
1013.10	1335.28
1013.27	1406.95
1013.43	1363.95
1013.60	1357.80
1013.76	1335.28
1013.93	1308.65
1014.09	1343.47
1014.25	1353.71
1014.42	1353.71
1014.58	1312.75
1014.75	1361.90
1014.91	1333.23
1015.08	1329.13
1015.24	1386.47
1015.40	1355.76
1015.57	1335.28
1015.73	1320.94
1015.90	1347.56
1016.06	1427.43
1016.23	1353.71
1016.39	1325.04
1016.55	1404.91
1016.72	1316.84
1016.88	1378.28
1017.05	1335.28
1017.21	1411.05
1017.37	1331.18
1017.54	1361.90
1017.70	1333.23
1017.87	1372.14
1018.03	1304.56
1018.20	1363.95
1018.36	1331.18
1018.52	1271.79
1018.69	1425.39
1018.85	1355.76
1019.01	1353.71
1019.18	1452.01
1019.34	1447.91
1019.51	1320.94
1019.67	1378.28
1019.83	1296.36
1020.00	1374.19
1020.16	1331.18
1020.33	1327.08
1020.49	1374.19
1020.65	1398.76
1020.82	1316.84
1020.98	1363.95
1021.14	1392.62
1021.31	1349.61
1021.47	1327.08
1021.63	1353.71
1021.80	1351.66
1021.96	1460.20
1022.13	1349.61
1022.29	1351.66
1022.45	1296.36
1022.62	1394.67
1022.78	1314.80
1022.94	1413.10
1023.11	1382.38
1023.27	1322.99
1023.43	1320.94
1023.60	1349.61
1023.76	1368.04
1023.92	1400.81
1024.09	1429.48
1024.25	1335.28
1024.41	1380.33
1024.58	1386.47
1024.74	1413.10
1024.90	1327.08
1025.07	1331.18
1025.23	1329.13
1025.39	1382.38
1025.56	1320.94
1025.72	1409.00
1025.88	1349.61
1026.05	1353.71
1026.21	1353.71
1026.37	1462.25
1026.53	1388.52
1026.70	1345.52
1026.86	1388.52
1027.02	1331.18
1027.19	1370.09
1027.35	1306.60
1027.51	1384.43
1027.68	1292.27
1027.84	1419.24
1028.00	1284.08
1028.16	1331.18
1028.33	1275.88
1028.49	1349.61
1028.65	1370.09
1028.81	1265.64
1028.98	1349.61
1029.14	1380.33
1029.30	1314.80
1029.47	1279.98
1029.63	1447.91
1029.79	1269.74
1029.95	1370.09
1030.12	1331.18
1030.28	1339.37
1030.44	1398.76
1030.60	1339.37
1030.77	1417.19
1030.93	1349.61
1031.09	1411.05
1031.25	1351.66
1031.42	1363.95
1031.58	1329.13
1031.74	1372.14
1031.90	1372.14
1032.07	1320.94
1032.23	1322.99
1032.39	1304.56
1032.55	1294.32
1032.72	1339.37
1032.88	1394.67
1033.04	1327.08
1033.20	1355.76
1033.37	1304.56
1033.53	1361.90
1033.69	1359.85
1033.85	1345.52
1034.01	1368.04
1034.18	1452.01
1034.34	1390.57
1034.50	1392.62
1034.66	1302.51
1034.83	1322.99
1034.99	1355.76
1035.15	1320.94
1035.31	1433.58
1035.47	1355.76
1035.64	1427.43
1035.80	1384.43
1035.96	1327.08
1036.12	1400.81
1036.28	1417.19
1036.45	1382.38
1036.61	1355.76
1036.77	1384.43
1036.93	1437.67
1037.09	1316.84
1037.25	1386.47
1037.42	1378.28
1037.58	1349.61
1037.74	1302.51
1037.90	1314.80
1038.06	1372.14
1038.22	1394.67
1038.39	1400.81
1038.55	1370.09
1038.71	1322.99
1038.87	1302.51
1039.03	1294.32
1039.19	1353.71
1039.36	1398.76
1039.52	1353.71
1039.68	1427.43
1039.84	1327.08
1040.00	1333.23
1040.16	1366.00
1040.33	1325.04
1040.49	1288.17
1040.65	1327.08
1040.81	1415.15
1040.97	1230.83
1041.13	1347.56
1041.29	1357.80
1041.46	1363.95
1041.62	1419.24
1041.78	1409.00
1041.94	1273.84
1042.10	1380.33
1042.26	1345.52
1042.42	1370.09
1042.58	1402.86
1042.75	1404.91
1042.91	1304.56
1043.07	1347.56
1043.23	1386.47
1043.39	1466.35
1043.55	1275.88
1043.71	1441.77
1043.87	1335.28
1044.03	1372.14
1044.20	1288.17
1044.36	1384.43
1044.52	1437.67
1044.68	1402.86
1044.84	1331.18
1045.00	1347.56
1045.16	1329.13
1045.32	1384.43
1045.48	1417.19
1045.64	1343.47
1045.80	1458.15
1045.97	1421.29
1046.13	1413.10
1046.29	1353.71
1046.45	1423.34
1046.61	1335.28
1046.77	1384.43
1046.93	1318.89
1047.09	1409.00
>>>>>End Processed Spectral Data<<<<<
