SpectraSuiteﾃﾞｰﾀﾌｧｲﾙ
++++++++++++++++++++++++++++++++++++
日時: Fri Sep 16 12:59:12 JST 2016
ﾕｰｻﾞ: kuroda3F136
ﾀﾞｰｸｽﾍﾟｸﾄﾙ: いいえ
ﾘﾌｧﾚﾝｽｽﾍﾟｸﾄﾙ: いいえ
ｻﾝﾌﾟﾙｺﾝﾎﾟﾈﾝﾄｽﾍﾟｸﾄﾙ数: 1
分光器: USB4F05502
Integration Time (usec): 100000 (USB4F05502)
ｽﾍﾟｸﾄﾙ平均: 1 (USB4F05502)
平滑化: 0 (USB4F05502)
暗電流補正: いいえ (USB4F05502)
ﾊﾟﾙｽ信号/光源有効: いいえ (USB4F05502)
ﾊﾟﾙｽ/光源　起動: いいえ (USB4F05502)
迷光の補正: いいえ (USB4F05502)
処理済みｽﾍﾟｸﾄﾙﾋﾟｸｾﾙ数: 3648
>>>>>Begin Processed Spectral Data<<<<<
345.32	1427.43
345.55	1427.43
345.77	1427.43
345.99	1320.94
346.21	1386.47
346.43	1447.91
346.65	1452.01
346.88	1505.26
347.10	1468.39
347.32	1515.50
347.54	1476.59
347.76	1466.35
347.98	1476.59
348.21	1484.78
348.43	1415.15
348.65	1415.15
348.87	1523.69
349.09	1546.22
349.31	1415.15
349.54	1486.83
349.76	1525.74
349.98	1529.83
350.20	1466.35
350.42	1544.17
350.64	1495.02
350.87	1411.05
351.09	1566.70
351.31	1464.30
351.53	1527.78
351.75	1515.50
351.97	1513.45
352.19	1464.30
352.42	1570.79
352.64	1542.12
352.86	1509.35
353.08	1460.20
353.30	1509.35
353.52	1478.63
353.74	1509.35
353.96	1519.59
354.19	1501.16
354.41	1486.83
354.63	1585.13
354.85	1452.01
355.07	1503.21
355.29	1464.30
355.51	1458.15
355.73	1413.10
355.96	1533.93
356.18	1548.26
356.40	1472.49
356.62	1542.12
356.84	1484.78
357.06	1517.54
357.28	1546.22
357.50	1470.44
357.72	1550.31
357.95	1456.11
358.17	1464.30
358.39	1480.68
358.61	1490.92
358.83	1550.31
359.05	1667.05
359.27	1492.97
359.49	1570.79
359.71	1531.88
359.93	1490.92
360.15	1490.92
360.38	1519.59
360.60	1488.87
360.82	1552.36
361.04	1447.91
361.26	1486.83
361.48	1505.26
361.70	1513.45
361.92	1492.97
362.14	1572.84
362.36	1521.64
362.58	1423.34
362.80	1501.16
363.02	1552.36
363.25	1474.54
363.47	1478.63
363.69	1570.79
363.91	1484.78
364.13	1527.78
364.35	1513.45
364.57	1478.63
364.79	1452.01
365.01	1458.15
365.23	1495.02
365.45	1468.39
365.67	1466.35
365.89	1488.87
366.11	1513.45
366.33	1484.78
366.55	1515.50
366.77	1484.78
366.99	1478.63
367.21	1445.87
367.43	1503.21
367.66	1486.83
367.88	1525.74
368.10	1488.87
368.32	1525.74
368.54	1425.39
368.76	1435.63
368.98	1533.93
369.20	1501.16
369.42	1630.18
369.64	1521.64
369.86	1462.25
370.08	1470.44
370.30	1578.98
370.52	1550.31
370.74	1495.02
370.96	1456.11
371.18	1533.93
371.40	1509.35
371.62	1492.97
371.84	1509.35
372.06	1482.73
372.28	1488.87
372.50	1445.87
372.72	1495.02
372.94	1529.83
373.16	1454.06
373.38	1447.91
373.60	1472.49
373.82	1521.64
374.04	1533.93
374.26	1505.26
374.48	1521.64
374.70	1554.41
374.92	1585.13
375.14	1478.63
375.36	1519.59
375.58	1513.45
375.80	1482.73
376.02	1533.93
376.24	1562.60
376.46	1523.69
376.68	1507.30
376.90	1538.02
377.12	1576.94
377.34	1525.74
377.56	1433.58
377.78	1499.11
378.00	1525.74
378.21	1386.47
378.43	1601.51
378.65	1583.08
378.87	1454.06
379.09	1466.35
379.31	1529.83
379.53	1490.92
379.75	1456.11
379.97	1470.44
380.19	1447.91
380.41	1482.73
380.63	1552.36
380.85	1492.97
381.07	1472.49
381.29	1533.93
381.51	1488.87
381.73	1509.35
381.95	1589.22
382.17	1525.74
382.39	1462.25
382.60	1497.07
382.82	1458.15
383.04	1486.83
383.26	1460.20
383.48	1468.39
383.70	1558.50
383.92	1433.58
384.14	1484.78
384.36	1468.39
384.58	1513.45
384.80	1388.52
385.02	1511.40
385.24	1495.02
385.45	1445.87
385.67	1546.22
385.89	1447.91
386.11	1521.64
386.33	1529.83
386.55	1419.24
386.77	1409.00
386.99	1490.92
387.21	1464.30
387.43	1529.83
387.65	1445.87
387.86	1488.87
388.08	1546.22
388.30	1460.20
388.52	1546.22
388.74	1447.91
388.96	1482.73
389.18	1560.55
389.40	1572.84
389.62	1462.25
389.83	1550.31
390.05	1427.43
390.27	1492.97
390.49	1495.02
390.71	1529.83
390.93	1499.11
391.15	1488.87
391.37	1447.91
391.58	1597.42
391.80	1527.78
392.02	1495.02
392.24	1585.13
392.46	1566.70
392.68	1472.49
392.90	1527.78
393.12	1529.83
393.33	1544.17
393.55	1523.69
393.77	1560.55
393.99	1509.35
394.21	1464.30
394.43	1492.97
394.64	1603.56
394.86	1486.83
395.08	1454.06
395.30	1431.53
395.52	1458.15
395.74	1480.68
395.96	1546.22
396.17	1544.17
396.39	1513.45
396.61	1488.87
396.83	1470.44
397.05	1521.64
397.27	1452.01
397.48	1488.87
397.70	1445.87
397.92	1472.49
398.14	1515.50
398.36	1488.87
398.58	1474.54
398.79	1617.90
399.01	1495.02
399.23	1505.26
399.45	1484.78
399.67	1419.24
399.88	1505.26
400.10	1572.84
400.32	1566.70
400.54	1521.64
400.76	1441.77
400.98	1456.11
401.19	1495.02
401.41	1433.58
401.63	1626.09
401.85	1486.83
402.07	1492.97
402.28	1499.11
402.50	1499.11
402.72	1517.54
402.94	1460.20
403.16	1505.26
403.37	1513.45
403.59	1538.02
403.81	1562.60
404.03	1505.26
404.24	1558.50
404.46	1505.26
404.68	1517.54
404.90	1529.83
405.12	1632.23
405.33	1445.87
405.55	1470.44
405.77	1531.88
405.99	1466.35
406.20	1578.98
406.42	1550.31
406.64	1558.50
406.86	1458.15
407.07	1521.64
407.29	1507.30
407.51	1521.64
407.73	1452.01
407.95	1458.15
408.16	1562.60
408.38	1452.01
408.60	1515.50
408.82	1527.78
409.03	1492.97
409.25	1484.78
409.47	1523.69
409.69	1566.70
409.90	1474.54
410.12	1525.74
410.34	1562.60
410.56	1509.35
410.77	1441.77
410.99	1540.07
411.21	1544.17
411.42	1486.83
411.64	1527.78
411.86	1501.16
412.08	1529.83
412.29	1501.16
412.51	1499.11
412.73	1490.92
412.95	1544.17
413.16	1531.88
413.38	1492.97
413.60	1503.21
413.81	1413.10
414.03	1464.30
414.25	1495.02
414.47	1488.87
414.68	1509.35
414.90	1427.43
415.12	1480.68
415.33	1525.74
415.55	1505.26
415.77	1458.15
415.99	1447.91
416.20	1523.69
416.42	1517.54
416.64	1505.26
416.85	1509.35
417.07	1513.45
417.29	1548.26
417.50	1552.36
417.72	1435.63
417.94	1533.93
418.15	1470.44
418.37	1497.07
418.59	1558.50
418.81	1587.18
419.02	1587.18
419.24	1470.44
419.46	1427.43
419.67	1533.93
419.89	1546.22
420.11	1474.54
420.32	1443.82
420.54	1546.22
420.76	1499.11
420.97	1535.98
421.19	1464.30
421.41	1470.44
421.62	1441.77
421.84	1431.53
422.06	1490.92
422.27	1476.59
422.49	1509.35
422.71	1486.83
422.92	1511.40
423.14	1492.97
423.36	1542.12
423.57	1538.02
423.79	1499.11
424.00	1447.91
424.22	1550.31
424.44	1535.98
424.65	1542.12
424.87	1482.73
425.09	1503.21
425.30	1484.78
425.52	1519.59
425.74	1445.87
425.95	1519.59
426.17	1501.16
426.38	1476.59
426.60	1552.36
426.82	1499.11
427.03	1464.30
427.25	1443.82
427.47	1429.48
427.68	1527.78
427.90	1531.88
428.11	1574.89
428.33	1585.13
428.55	1572.84
428.76	1515.50
428.98	1478.63
429.20	1427.43
429.41	1480.68
429.63	1515.50
429.84	1476.59
430.06	1474.54
430.28	1533.93
430.49	1482.73
430.71	1423.34
430.92	1533.93
431.14	1507.30
431.36	1472.49
431.57	1476.59
431.79	1529.83
432.00	1529.83
432.22	1488.87
432.43	1449.96
432.65	1488.87
432.87	1449.96
433.08	1535.98
433.30	1513.45
433.51	1431.53
433.73	1495.02
433.95	1533.93
434.16	1495.02
434.38	1599.46
434.59	1540.07
434.81	1533.93
435.02	1546.22
435.24	1624.04
435.46	1646.57
435.67	1609.70
435.89	1611.75
436.10	1562.60
436.32	1564.65
436.53	1540.07
436.75	1574.89
436.96	1578.98
437.18	1523.69
437.40	1605.61
437.61	1501.16
437.83	1511.40
438.04	1456.11
438.26	1499.11
438.47	1513.45
438.69	1456.11
438.90	1658.85
439.12	1593.32
439.33	1505.26
439.55	1474.54
439.76	1421.29
439.98	1484.78
440.20	1499.11
440.41	1464.30
440.63	1499.11
440.84	1474.54
441.06	1515.50
441.27	1464.30
441.49	1443.82
441.70	1480.68
441.92	1501.16
442.13	1585.13
442.35	1531.88
442.56	1538.02
442.78	1357.80
442.99	1546.22
443.21	1523.69
443.42	1538.02
443.64	1538.02
443.85	1404.91
444.07	1538.02
444.28	1488.87
444.50	1497.07
444.71	1480.68
444.93	1529.83
445.14	1392.62
445.36	1415.15
445.57	1505.26
445.79	1517.54
446.00	1386.47
446.22	1497.07
446.43	1476.59
446.65	1464.30
446.86	1488.87
447.08	1484.78
447.29	1490.92
447.51	1540.07
447.72	1488.87
447.94	1548.26
448.15	1540.07
448.37	1533.93
448.58	1550.31
448.80	1476.59
449.01	1421.29
449.22	1495.02
449.44	1540.07
449.65	1513.45
449.87	1538.02
450.08	1470.44
450.30	1390.57
450.51	1570.79
450.73	1409.00
450.94	1691.62
451.16	1505.26
451.37	1452.01
451.59	1454.06
451.80	1548.26
452.01	1562.60
452.23	1527.78
452.44	1578.98
452.66	1439.72
452.87	1466.35
453.09	1566.70
453.30	1574.89
453.51	1572.84
453.73	1527.78
453.94	1513.45
454.16	1533.93
454.37	1513.45
454.59	1535.98
454.80	1484.78
455.02	1415.15
455.23	1435.63
455.44	1435.63
455.66	1458.15
455.87	1519.59
456.09	1495.02
456.30	1476.59
456.51	1548.26
456.73	1523.69
456.94	1447.91
457.16	1581.03
457.37	1554.41
457.58	1433.58
457.80	1513.45
458.01	1495.02
458.23	1499.11
458.44	1476.59
458.66	1503.21
458.87	1396.71
459.08	1511.40
459.30	1531.88
459.51	1525.74
459.72	1492.97
459.94	1433.58
460.15	1503.21
460.37	1660.90
460.58	1505.26
460.79	1363.95
461.01	1566.70
461.22	1513.45
461.44	1513.45
461.65	1486.83
461.86	1454.06
462.08	1470.44
462.29	1501.16
462.50	1482.73
462.72	1462.25
462.93	1476.59
463.15	1402.86
463.36	1519.59
463.57	1499.11
463.79	1499.11
464.00	1447.91
464.21	1521.64
464.43	1544.17
464.64	1464.30
464.85	1466.35
465.07	1499.11
465.28	1519.59
465.49	1492.97
465.71	1456.11
465.92	1509.35
466.13	1476.59
466.35	1527.78
466.56	1507.30
466.78	1529.83
466.99	1439.72
467.20	1568.74
467.42	1529.83
467.63	1525.74
467.84	1501.16
468.06	1421.29
468.27	1478.63
468.48	1509.35
468.70	1458.15
468.91	1523.69
469.12	1472.49
469.33	1501.16
469.55	1513.45
469.76	1601.51
469.97	1486.83
470.19	1421.29
470.40	1486.83
470.61	1507.30
470.83	1488.87
471.04	1517.54
471.25	1474.54
471.47	1554.41
471.68	1519.59
471.89	1632.23
472.11	1511.40
472.32	1456.11
472.53	1587.18
472.74	1513.45
472.96	1495.02
473.17	1546.22
473.38	1621.99
473.60	1437.67
473.81	1423.34
474.02	1488.87
474.23	1462.25
474.45	1587.18
474.66	1529.83
474.87	1589.22
475.09	1509.35
475.30	1517.54
475.51	1550.31
475.72	1517.54
475.94	1511.40
476.15	1447.91
476.36	1454.06
476.58	1603.56
476.79	1476.59
477.00	1439.72
477.21	1515.50
477.43	1538.02
477.64	1568.74
477.85	1513.45
478.06	1482.73
478.28	1441.77
478.49	1447.91
478.70	1572.84
478.91	1478.63
479.13	1447.91
479.34	1523.69
479.55	1437.67
479.76	1495.02
479.98	1503.21
480.19	1464.30
480.40	1607.66
480.61	1546.22
480.83	1482.73
481.04	1519.59
481.25	1466.35
481.46	1533.93
481.68	1404.91
481.89	1513.45
482.10	1501.16
482.31	1505.26
482.52	1476.59
482.74	1464.30
482.95	1521.64
483.16	1556.46
483.37	1431.53
483.59	1542.12
483.80	1517.54
484.01	1415.15
484.22	1581.03
484.43	1519.59
484.65	1488.87
484.86	1394.67
485.07	1495.02
485.28	1460.20
485.49	1550.31
485.71	1501.16
485.92	1503.21
486.13	1581.03
486.34	1632.23
486.55	1658.85
486.77	1722.34
486.98	1841.12
487.19	1978.34
487.40	2680.79
487.61	3717.06
487.83	4220.86
488.04	3805.13
488.25	3112.91
488.46	2783.19
488.67	2519.00
488.88	2211.81
489.10	1877.99
489.31	1669.09
489.52	1578.98
489.73	1511.40
489.94	1560.55
490.16	1515.50
490.37	1589.22
490.58	1544.17
490.79	1538.02
491.00	1529.83
491.21	1527.78
491.43	1464.30
491.64	1578.98
491.85	1529.83
492.06	1462.25
492.27	1480.68
492.48	1554.41
492.69	1632.23
492.91	1576.94
493.12	1546.22
493.33	1550.31
493.54	1499.11
493.75	1599.46
493.96	1503.21
494.17	1521.64
494.39	1507.30
494.60	1585.13
494.81	1603.56
495.02	1513.45
495.23	1486.83
495.44	1521.64
495.65	1474.54
495.87	1552.36
496.08	1464.30
496.29	1462.25
496.50	1511.40
496.71	1513.45
496.92	1521.64
497.13	1449.96
497.34	1550.31
497.55	1570.79
497.77	1535.98
497.98	1501.16
498.19	1499.11
498.40	1472.49
498.61	1533.93
498.82	1503.21
499.03	1521.64
499.24	1509.35
499.45	1607.66
499.67	1468.39
499.88	1533.93
500.09	1488.87
500.30	1445.87
500.51	1472.49
500.72	1472.49
500.93	1460.20
501.14	1437.67
501.35	1517.54
501.56	1525.74
501.77	1478.63
501.99	1578.98
502.20	1468.39
502.41	1566.70
502.62	1482.73
502.83	1497.07
503.04	1515.50
503.25	1488.87
503.46	1478.63
503.67	1513.45
503.88	1464.30
504.09	1535.98
504.30	1490.92
504.51	1568.74
504.72	1482.73
504.94	1636.33
505.15	1478.63
505.36	1527.78
505.57	1611.75
505.78	1495.02
505.99	1574.89
506.20	1529.83
506.41	1595.37
506.62	1447.91
506.83	1566.70
507.04	1576.94
507.25	1460.20
507.46	1464.30
507.67	1529.83
507.88	1521.64
508.09	1535.98
508.30	1521.64
508.51	1437.67
508.72	1482.73
508.93	1472.49
509.14	1515.50
509.35	1595.37
509.56	1468.39
509.77	1560.55
509.99	1525.74
510.20	1556.46
510.41	1640.42
510.62	1413.10
510.83	1499.11
511.04	1521.64
511.25	1533.93
511.46	1486.83
511.67	1486.83
511.88	1621.99
512.09	1474.54
512.30	1552.36
512.51	1538.02
512.72	1572.84
512.93	1576.94
513.14	1486.83
513.35	1484.78
513.56	1570.79
513.77	1486.83
513.98	1495.02
514.19	1456.11
514.40	1486.83
514.61	1398.76
514.82	1505.26
515.03	1544.17
515.24	1554.41
515.45	1409.00
515.66	1503.21
515.87	1509.35
516.07	1431.53
516.28	1591.27
516.49	1488.87
516.70	1550.31
516.91	1544.17
517.12	1538.02
517.33	1495.02
517.54	1546.22
517.75	1540.07
517.96	1554.41
518.17	1490.92
518.38	1488.87
518.59	1503.21
518.80	1488.87
519.01	1538.02
519.22	1538.02
519.43	1503.21
519.64	1578.98
519.85	1583.08
520.06	1585.13
520.27	1513.45
520.48	1492.97
520.69	1390.57
520.90	1519.59
521.10	1482.73
521.31	1548.26
521.52	1517.54
521.73	1548.26
521.94	1570.79
522.15	1437.67
522.36	1533.93
522.57	1452.01
522.78	1472.49
522.99	1599.46
523.20	1452.01
523.41	1593.32
523.62	1433.58
523.83	1599.46
524.03	1464.30
524.24	1474.54
524.45	1486.83
524.66	1546.22
524.87	1466.35
525.08	1409.00
525.29	1509.35
525.50	1568.74
525.71	1521.64
525.92	1505.26
526.13	1456.11
526.33	1452.01
526.54	1529.83
526.75	1531.88
526.96	1492.97
527.17	1546.22
527.38	1527.78
527.59	1507.30
527.80	1519.59
528.01	1458.15
528.21	1484.78
528.42	1492.97
528.63	1525.74
528.84	1523.69
529.05	1497.07
529.26	1521.64
529.47	1521.64
529.68	1462.25
529.89	1480.68
530.09	1517.54
530.30	1505.26
530.51	1554.41
530.72	1443.82
530.93	1550.31
531.14	1503.21
531.35	1501.16
531.55	1478.63
531.76	1507.30
531.97	1472.49
532.18	1515.50
532.39	1449.96
532.60	1503.21
532.81	1566.70
533.01	1632.23
533.22	1556.46
533.43	1531.88
533.64	1523.69
533.85	1464.30
534.06	1574.89
534.27	1435.63
534.47	1538.02
534.68	1513.45
534.89	1462.25
535.10	1458.15
535.31	1499.11
535.52	1538.02
535.72	1544.17
535.93	1503.21
536.14	1603.56
536.35	1449.96
536.56	1439.72
536.76	1533.93
536.97	1550.31
537.18	1505.26
537.39	1529.83
537.60	1533.93
537.81	1511.40
538.01	1456.11
538.22	1456.11
538.43	1480.68
538.64	1583.08
538.85	1609.70
539.05	1527.78
539.26	1515.50
539.47	1599.46
539.68	1581.03
539.89	1458.15
540.09	1509.35
540.30	1517.54
540.51	1454.06
540.72	1552.36
540.93	1505.26
541.13	1497.07
541.34	1544.17
541.55	1527.78
541.76	1568.74
541.96	1550.31
542.17	1607.66
542.38	1486.83
542.59	1542.12
542.80	1624.04
543.00	1585.13
543.21	1439.72
543.42	1501.16
543.63	1568.74
543.83	1425.39
544.04	1538.02
544.25	1572.84
544.46	1611.75
544.67	1439.72
544.87	1486.83
545.08	1572.84
545.29	1546.22
545.50	1468.39
545.70	1464.30
545.91	1499.11
546.12	1447.91
546.33	1515.50
546.53	1556.46
546.74	1476.59
546.95	1464.30
547.16	1433.58
547.36	1439.72
547.57	1462.25
547.78	1513.45
547.98	1566.70
548.19	1511.40
548.40	1454.06
548.61	1488.87
548.81	1499.11
549.02	1546.22
549.23	1480.68
549.44	1492.97
549.64	1474.54
549.85	1542.12
550.06	1509.35
550.26	1621.99
550.47	1511.40
550.68	1501.16
550.89	1609.70
551.09	1568.74
551.30	1503.21
551.51	1482.73
551.71	1560.55
551.92	1531.88
552.13	1527.78
552.34	1501.16
552.54	1470.44
552.75	1589.22
552.96	1497.07
553.16	1517.54
553.37	1572.84
553.58	1431.53
553.78	1464.30
553.99	1538.02
554.20	1501.16
554.41	1458.15
554.61	1570.79
554.82	1527.78
555.03	1488.87
555.23	1497.07
555.44	1470.44
555.65	1552.36
555.85	1468.39
556.06	1578.98
556.27	1542.12
556.47	1544.17
556.68	1505.26
556.89	1480.68
557.09	1564.65
557.30	1443.82
557.51	1531.88
557.71	1497.07
557.92	1476.59
558.13	1464.30
558.33	1466.35
558.54	1599.46
558.75	1505.26
558.95	1552.36
559.16	1574.89
559.37	1492.97
559.57	1447.91
559.78	1460.20
559.98	1476.59
560.19	1419.24
560.40	1538.02
560.60	1452.01
560.81	1503.21
561.02	1533.93
561.22	1484.78
561.43	1511.40
561.64	1556.46
561.84	1501.16
562.05	1581.03
562.25	1538.02
562.46	1478.63
562.67	1511.40
562.87	1529.83
563.08	1548.26
563.29	1437.67
563.49	1529.83
563.70	1437.67
563.90	1458.15
564.11	1501.16
564.32	1525.74
564.52	1535.98
564.73	1513.45
564.93	1488.87
565.14	1468.39
565.35	1495.02
565.55	1542.12
565.76	1492.97
565.96	1581.03
566.17	1519.59
566.38	1497.07
566.58	1517.54
566.79	1531.88
566.99	1460.20
567.20	1611.75
567.41	1546.22
567.61	1535.98
567.82	1470.44
568.02	1398.76
568.23	1525.74
568.43	1486.83
568.64	1529.83
568.85	1460.20
569.05	1538.02
569.26	1540.07
569.46	1511.40
569.67	1499.11
569.87	1581.03
570.08	1374.19
570.29	1615.85
570.49	1581.03
570.70	1521.64
570.90	1497.07
571.11	1568.74
571.31	1538.02
571.52	1619.94
571.73	1554.41
571.93	1562.60
572.14	1462.25
572.34	1560.55
572.55	1548.26
572.75	1495.02
572.96	1499.11
573.16	1464.30
573.37	1519.59
573.57	1431.53
573.78	1597.42
573.99	1560.55
574.19	1617.90
574.40	1560.55
574.60	1595.37
574.81	1613.80
575.01	1525.74
575.22	1576.94
575.42	1568.74
575.63	1484.78
575.83	1466.35
576.04	1529.83
576.24	1603.56
576.45	1669.09
576.65	1613.80
576.86	1648.61
577.06	1624.04
577.27	1525.74
577.47	1525.74
577.68	1605.61
577.88	1542.12
578.09	1624.04
578.29	1513.45
578.50	1578.98
578.70	1556.46
578.91	1665.00
579.11	1587.18
579.32	1619.94
579.52	1499.11
579.73	1689.57
579.93	1591.27
580.14	1638.38
580.34	1603.56
580.55	1550.31
580.75	1599.46
580.96	1593.32
581.16	1634.28
581.37	1619.94
581.57	1617.90
581.78	1611.75
581.98	1546.22
582.19	1617.90
582.39	1589.22
582.60	1566.70
582.80	1546.22
583.00	1611.75
583.21	1621.99
583.41	1554.41
583.62	1591.27
583.82	1585.13
584.03	1566.70
584.23	1578.98
584.44	1562.60
584.64	1535.98
584.85	1689.57
585.05	1550.31
585.25	1640.42
585.46	1578.98
585.66	1660.90
585.87	1605.61
586.07	1578.98
586.28	1587.18
586.48	1589.22
586.69	1689.57
586.89	1613.80
587.09	1673.19
587.30	1593.32
587.50	1634.28
587.71	1519.59
587.91	1550.31
588.12	1605.61
588.32	1540.07
588.52	1546.22
588.73	1615.85
588.93	1601.51
589.14	1714.15
589.34	1613.80
589.55	1654.76
589.75	1585.13
589.95	1603.56
590.16	1572.84
590.36	1644.52
590.57	1652.71
590.77	1662.95
590.97	1533.93
591.18	1558.50
591.38	1656.81
591.59	1538.02
591.79	1601.51
591.99	1542.12
592.20	1671.14
592.40	1583.08
592.61	1638.38
592.81	1581.03
593.01	1636.33
593.22	1605.61
593.42	1658.85
593.62	1513.45
593.83	1515.50
594.03	1613.80
594.24	1624.04
594.44	1603.56
594.64	1636.33
594.85	1658.85
595.05	1689.57
595.25	1669.09
595.46	1621.99
595.66	1595.37
595.87	1648.61
596.07	1570.79
596.27	1570.79
596.48	1581.03
596.68	1619.94
596.88	1585.13
597.09	1564.65
597.29	1605.61
597.49	1605.61
597.70	1595.37
597.90	1581.03
598.10	1605.61
598.31	1593.32
598.51	1490.92
598.71	1642.47
598.92	1538.02
599.12	1624.04
599.32	1585.13
599.53	1587.18
599.73	1552.36
599.93	1611.75
600.14	1587.18
600.34	1574.89
600.54	1558.50
600.75	1556.46
600.95	1591.27
601.15	1587.18
601.36	1544.17
601.56	1574.89
601.76	1554.41
601.97	1554.41
602.17	1595.37
602.37	1640.42
602.58	1486.83
602.78	1560.55
602.98	1554.41
603.19	1570.79
603.39	1638.38
603.59	1671.14
603.79	1589.22
604.00	1595.37
604.20	1611.75
604.40	1632.23
604.61	1581.03
604.81	1572.84
605.01	1665.00
605.22	1673.19
605.42	1566.70
605.62	1621.99
605.82	1576.94
606.03	1613.80
606.23	1554.41
606.43	1597.42
606.63	1607.66
606.84	1587.18
607.04	1562.60
607.24	1546.22
607.45	1603.56
607.65	1562.60
607.85	1513.45
608.05	1617.90
608.26	1540.07
608.46	1595.37
608.66	1474.54
608.86	1531.88
609.07	1513.45
609.27	1564.65
609.47	1488.87
609.67	1595.37
609.88	1595.37
610.08	1570.79
610.28	1566.70
610.48	1554.41
610.69	1472.49
610.89	1546.22
611.09	1472.49
611.29	1630.18
611.50	1660.90
611.70	1556.46
611.90	1595.37
612.10	1605.61
612.31	1521.64
612.51	1503.21
612.71	1521.64
612.91	1538.02
613.12	1595.37
613.32	1542.12
613.52	1617.90
613.72	1505.26
613.92	1568.74
614.13	1472.49
614.33	1601.51
614.53	1611.75
614.73	1501.16
614.94	1607.66
615.14	1509.35
615.34	1611.75
615.54	1562.60
615.74	1607.66
615.95	1601.51
616.15	1595.37
616.35	1464.30
616.55	1599.46
616.75	1585.13
616.96	1505.26
617.16	1513.45
617.36	1591.27
617.56	1636.33
617.76	1646.57
617.96	1611.75
618.17	1538.02
618.37	1513.45
618.57	1562.60
618.77	1495.02
618.97	1462.25
619.18	1515.50
619.38	1554.41
619.58	1558.50
619.78	1611.75
619.98	1476.59
620.18	1546.22
620.39	1468.39
620.59	1501.16
620.79	1609.70
620.99	1576.94
621.19	1517.54
621.39	1560.55
621.60	1492.97
621.80	1574.89
622.00	1572.84
622.20	1560.55
622.40	1527.78
622.60	1470.44
622.81	1505.26
623.01	1593.32
623.21	1521.64
623.41	1505.26
623.61	1540.07
623.81	1570.79
624.01	1542.12
624.22	1478.63
624.42	1587.18
624.62	1511.40
624.82	1509.35
625.02	1587.18
625.22	1578.98
625.42	1585.13
625.62	1679.33
625.83	1615.85
626.03	1546.22
626.23	1615.85
626.43	1529.83
626.63	1574.89
626.83	1525.74
627.03	1519.59
627.23	1548.26
627.43	1480.68
627.64	1605.61
627.84	1587.18
628.04	1497.07
628.24	1478.63
628.44	1595.37
628.64	1474.54
628.84	1505.26
629.04	1691.62
629.24	1468.39
629.45	1648.61
629.65	1587.18
629.85	1505.26
630.05	1572.84
630.25	1546.22
630.45	1603.56
630.65	1607.66
630.85	1572.84
631.05	1628.14
631.25	1665.00
631.45	1558.50
631.65	1544.17
631.86	1525.74
632.06	1599.46
632.26	1589.22
632.46	1558.50
632.66	1581.03
632.86	1533.93
633.06	1581.03
633.26	1511.40
633.46	1619.94
633.66	1607.66
633.86	1628.14
634.06	1501.16
634.26	1552.36
634.46	1658.85
634.66	1601.51
634.86	1679.33
635.07	1615.85
635.27	1548.26
635.47	1515.50
635.67	1517.54
635.87	1601.51
636.07	1591.27
636.27	1578.98
636.47	1468.39
636.67	1529.83
636.87	1595.37
637.07	1583.08
637.27	1615.85
637.47	1673.19
637.67	1521.64
637.87	1593.32
638.07	1595.37
638.27	1638.38
638.47	1578.98
638.67	1601.51
638.87	1564.65
639.07	1544.17
639.27	1574.89
639.47	1562.60
639.67	1642.47
639.87	1538.02
640.07	1665.00
640.27	1562.60
640.47	1558.50
640.67	1607.66
640.87	1581.03
641.07	1611.75
641.27	1460.20
641.47	1515.50
641.67	1542.12
641.87	1521.64
642.07	1615.85
642.27	1619.94
642.47	1529.83
642.67	1566.70
642.87	1603.56
643.07	1601.51
643.27	1523.69
643.47	1583.08
643.67	1603.56
643.87	1593.32
644.07	1591.27
644.27	1597.42
644.47	1503.21
644.67	1527.78
644.87	1595.37
645.07	1519.59
645.27	1595.37
645.47	1576.94
645.67	1685.48
645.87	1548.26
646.07	1660.90
646.27	1638.38
646.47	1509.35
646.67	1591.27
646.87	1624.04
647.06	1527.78
647.26	1603.56
647.46	1566.70
647.66	1656.81
647.86	1665.00
648.06	1617.90
648.26	1585.13
648.46	1562.60
648.66	1599.46
648.86	1613.80
649.06	1621.99
649.26	1535.98
649.46	1570.79
649.66	1525.74
649.86	1509.35
650.06	1562.60
650.25	1607.66
650.45	1611.75
650.65	1558.50
650.85	1685.48
651.05	1652.71
651.25	1501.16
651.45	1578.98
651.65	1535.98
651.85	1615.85
652.05	1644.52
652.25	1636.33
652.45	1632.23
652.64	1626.09
652.84	1632.23
653.04	1595.37
653.24	1572.84
653.44	1626.09
653.64	1605.61
653.84	1613.80
654.04	1656.81
654.24	1648.61
654.44	1646.57
654.63	1603.56
654.83	1652.71
655.03	1783.78
655.23	1634.28
655.43	1626.09
655.63	1669.09
655.83	1636.33
656.03	1570.79
656.22	1685.48
656.42	1636.33
656.62	1839.08
656.82	1796.07
657.02	2179.04
657.22	3074.00
657.42	4687.80
657.62	7726.99
657.81	13956.91
658.01	28489.29
658.21	38124.99
658.41	34616.82
658.61	19939.02
658.81	12623.68
659.01	7657.36
659.20	4833.21
659.40	3360.72
659.60	2617.30
659.80	2185.18
660.00	1943.52
660.20	1941.47
660.39	1796.07
660.59	1701.86
660.79	1730.53
660.99	1724.39
661.19	1679.33
661.39	1773.54
661.58	1585.13
661.78	1728.49
661.98	1613.80
662.18	1613.80
662.38	1728.49
662.58	1546.22
662.77	1578.98
662.97	1687.53
663.17	1597.42
663.37	1679.33
663.57	1591.27
663.77	1699.81
663.96	1665.00
664.16	1609.70
664.36	1574.89
664.56	1603.56
664.76	1515.50
664.95	1638.38
665.15	1669.09
665.35	1611.75
665.55	1603.56
665.75	1587.18
665.94	1544.17
666.14	1562.60
666.34	1644.52
666.54	1640.42
666.74	1589.22
666.93	1644.52
667.13	1589.22
667.33	1574.89
667.53	1566.70
667.72	1593.32
667.92	1624.04
668.12	1574.89
668.32	1529.83
668.52	1615.85
668.71	1578.98
668.91	1609.70
669.11	1585.13
669.31	1513.45
669.50	1636.33
669.70	1578.98
669.90	1560.55
670.10	1554.41
670.29	1591.27
670.49	1593.32
670.69	1535.98
670.89	1624.04
671.08	1650.66
671.28	1501.16
671.48	1675.24
671.68	1562.60
671.87	1581.03
672.07	1556.46
672.27	1515.50
672.47	1693.67
672.66	1558.50
672.86	1599.46
673.06	1595.37
673.26	1593.32
673.45	1570.79
673.65	1527.78
673.85	1560.55
674.05	1572.84
674.24	1554.41
674.44	1593.32
674.64	1564.65
674.83	1669.09
675.03	1523.69
675.23	1544.17
675.43	1603.56
675.62	1531.88
675.82	1554.41
676.02	1558.50
676.21	1636.33
676.41	1554.41
676.61	1566.70
676.81	1538.02
677.00	1581.03
677.20	1570.79
677.40	1615.85
677.59	1544.17
677.79	1443.82
677.99	1619.94
678.18	1523.69
678.38	1511.40
678.58	1609.70
678.78	1587.18
678.97	1548.26
679.17	1535.98
679.37	1587.18
679.56	1497.07
679.76	1581.03
679.96	1517.54
680.15	1587.18
680.35	1503.21
680.55	1525.74
680.74	1495.02
680.94	1538.02
681.14	1562.60
681.33	1435.63
681.53	1488.87
681.73	1523.69
681.92	1609.70
682.12	1535.98
682.32	1476.59
682.51	1452.01
682.71	1517.54
682.91	1488.87
683.10	1538.02
683.30	1484.78
683.50	1535.98
683.69	1486.83
683.89	1492.97
684.08	1511.40
684.28	1544.17
684.48	1552.36
684.67	1576.94
684.87	1501.16
685.07	1599.46
685.26	1437.67
685.46	1535.98
685.66	1550.31
685.85	1533.93
686.05	1507.30
686.24	1458.15
686.44	1538.02
686.64	1527.78
686.83	1492.97
687.03	1443.82
687.23	1466.35
687.42	1566.70
687.62	1503.21
687.81	1611.75
688.01	1535.98
688.21	1554.41
688.40	1570.79
688.60	1554.41
688.79	1466.35
688.99	1519.59
689.19	1425.39
689.38	1574.89
689.58	1566.70
689.77	1527.78
689.97	1572.84
690.17	1443.82
690.36	1478.63
690.56	1458.15
690.75	1462.25
690.95	1507.30
691.15	1474.54
691.34	1468.39
691.54	1574.89
691.73	1452.01
691.93	1429.48
692.12	1505.26
692.32	1486.83
692.52	1495.02
692.71	1513.45
692.91	1513.45
693.10	1396.71
693.30	1476.59
693.49	1525.74
693.69	1511.40
693.89	1484.78
694.08	1497.07
694.28	1460.20
694.47	1525.74
694.67	1589.22
694.86	1476.59
695.06	1564.65
695.25	1470.44
695.45	1540.07
695.65	1560.55
695.84	1497.07
696.04	1521.64
696.23	1501.16
696.43	1517.54
696.62	1495.02
696.82	1503.21
697.01	1515.50
697.21	1525.74
697.40	1400.81
697.60	1503.21
697.79	1468.39
697.99	1456.11
698.18	1595.37
698.38	1513.45
698.58	1517.54
698.77	1474.54
698.97	1525.74
699.16	1472.49
699.36	1476.59
699.55	1476.59
699.75	1452.01
699.94	1449.96
700.14	1507.30
700.33	1466.35
700.53	1458.15
700.72	1476.59
700.92	1488.87
701.11	1468.39
701.31	1501.16
701.50	1452.01
701.70	1560.55
701.89	1464.30
702.09	1527.78
702.28	1503.21
702.48	1464.30
702.67	1560.55
702.87	1429.48
703.06	1495.02
703.25	1548.26
703.45	1513.45
703.64	1517.54
703.84	1507.30
704.03	1513.45
704.23	1509.35
704.42	1505.26
704.62	1529.83
704.81	1488.87
705.01	1527.78
705.20	1503.21
705.40	1531.88
705.59	1482.73
705.79	1464.30
705.98	1525.74
706.18	1452.01
706.37	1611.75
706.56	1423.34
706.76	1474.54
706.95	1578.98
707.15	1529.83
707.34	1568.74
707.54	1572.84
707.73	1560.55
707.93	1497.07
708.12	1519.59
708.31	1456.11
708.51	1550.31
708.70	1515.50
708.90	1501.16
709.09	1476.59
709.29	1499.11
709.48	1513.45
709.67	1456.11
709.87	1509.35
710.06	1529.83
710.26	1509.35
710.45	1517.54
710.65	1546.22
710.84	1585.13
711.03	1517.54
711.23	1488.87
711.42	1452.01
711.62	1624.04
711.81	1478.63
712.00	1484.78
712.20	1558.50
712.39	1511.40
712.59	1556.46
712.78	1443.82
712.97	1556.46
713.17	1505.26
713.36	1509.35
713.56	1538.02
713.75	1490.92
713.94	1601.51
714.14	1503.21
714.33	1466.35
714.53	1538.02
714.72	1552.36
714.91	1503.21
715.11	1472.49
715.30	1617.90
715.49	1554.41
715.69	1556.46
715.88	1443.82
716.08	1556.46
716.27	1533.93
716.46	1497.07
716.66	1529.83
716.85	1525.74
717.04	1513.45
717.24	1527.78
717.43	1513.45
717.62	1550.31
717.82	1562.60
718.01	1525.74
718.20	1472.49
718.40	1458.15
718.59	1603.56
718.79	1533.93
718.98	1507.30
719.17	1515.50
719.37	1621.99
719.56	1576.94
719.75	1574.89
719.95	1587.18
720.14	1529.83
720.33	1589.22
720.53	1515.50
720.72	1454.06
720.91	1564.65
721.11	1599.46
721.30	1513.45
721.49	1501.16
721.69	1505.26
721.88	1572.84
722.07	1570.79
722.26	1544.17
722.46	1503.21
722.65	1599.46
722.84	1574.89
723.04	1529.83
723.23	1554.41
723.42	1480.68
723.62	1542.12
723.81	1589.22
724.00	1562.60
724.20	1601.51
724.39	1499.11
724.58	1470.44
724.77	1574.89
724.97	1523.69
725.16	1585.13
725.35	1546.22
725.55	1583.08
725.74	1548.26
725.93	1544.17
726.12	1617.90
726.32	1578.98
726.51	1599.46
726.70	1929.19
726.90	1546.22
727.09	1581.03
727.28	1566.70
727.47	1515.50
727.67	1540.07
727.86	1495.02
728.05	1533.93
728.24	1544.17
728.44	1497.07
728.63	1546.22
728.82	1554.41
729.02	1509.35
729.21	1574.89
729.40	1599.46
729.59	1564.65
729.79	1544.17
729.98	1490.92
730.17	1533.93
730.36	1462.25
730.56	1527.78
730.75	1548.26
730.94	1521.64
731.13	1570.79
731.32	1517.54
731.52	1554.41
731.71	1474.54
731.90	1621.99
732.09	1525.74
732.29	1531.88
732.48	1535.98
732.67	1642.47
732.86	1540.07
733.06	1591.27
733.25	1564.65
733.44	1593.32
733.63	1572.84
733.82	1550.31
734.02	1662.95
734.21	1572.84
734.40	1517.54
734.59	1468.39
734.78	1607.66
734.98	1546.22
735.17	1519.59
735.36	1560.55
735.55	1572.84
735.75	1607.66
735.94	1560.55
736.13	1529.83
736.32	1527.78
736.51	1621.99
736.70	1517.54
736.90	1542.12
737.09	1597.42
737.28	1552.36
737.47	1564.65
737.66	1603.56
737.86	1585.13
738.05	1646.57
738.24	1552.36
738.43	1548.26
738.62	1570.79
738.81	1589.22
739.01	1527.78
739.20	1503.21
739.39	1578.98
739.58	1556.46
739.77	1531.88
739.96	1556.46
740.16	1558.50
740.35	1583.08
740.54	1599.46
740.73	1519.59
740.92	1566.70
741.11	1652.71
741.31	1597.42
741.50	1488.87
741.69	1484.78
741.88	1583.08
742.07	1533.93
742.26	1595.37
742.45	1562.60
742.65	1570.79
742.84	1533.93
743.03	1583.08
743.22	1519.59
743.41	1437.67
743.60	1552.36
743.79	1574.89
743.98	1665.00
744.18	1687.53
744.37	1693.67
744.56	1568.74
744.75	1523.69
744.94	1650.66
745.13	1636.33
745.32	1566.70
745.51	1656.81
745.71	1710.05
745.90	1804.26
746.09	1859.56
746.28	1714.15
746.47	1767.40
746.66	1726.44
746.85	1529.83
747.04	1679.33
747.23	1638.38
747.42	1662.95
747.62	1632.23
747.81	1671.14
748.00	1697.77
748.19	1705.96
748.38	1896.42
748.57	1984.48
748.76	1984.48
748.95	1800.16
749.14	1884.13
749.33	1599.46
749.52	1566.70
749.71	1667.05
749.91	1636.33
750.10	1665.00
750.29	1558.50
750.48	1566.70
750.67	1681.38
750.86	1595.37
751.05	1583.08
751.24	1501.16
751.43	1601.51
751.62	1589.22
751.81	1538.02
752.00	1550.31
752.19	1593.32
752.38	1601.51
752.57	1599.46
752.76	1546.22
752.96	1484.78
753.15	1495.02
753.34	1533.93
753.53	1513.45
753.72	1484.78
753.91	1591.27
754.10	1591.27
754.29	1593.32
754.48	1583.08
754.67	1601.51
754.86	1593.32
755.05	1474.54
755.24	1624.04
755.43	1564.65
755.62	1560.55
755.81	1638.38
756.00	1540.07
756.19	1535.98
756.38	1581.03
756.57	1519.59
756.76	1581.03
756.95	1572.84
757.14	1558.50
757.33	1519.59
757.52	1628.14
757.71	1621.99
757.90	1570.79
758.09	1636.33
758.28	1662.95
758.47	1554.41
758.66	1660.90
758.85	1593.32
759.04	1593.32
759.23	1511.40
759.42	1652.71
759.61	1564.65
759.80	1527.78
759.99	1609.70
760.18	1566.70
760.37	1546.22
760.56	1568.74
760.75	1544.17
760.94	1669.09
761.13	1546.22
761.32	1486.83
761.51	1533.93
761.70	1642.47
761.89	1607.66
762.08	1585.13
762.27	1513.45
762.46	1490.92
762.65	1595.37
762.84	1599.46
763.03	1601.51
763.22	1527.78
763.41	1495.02
763.59	1595.37
763.78	1617.90
763.97	1644.52
764.16	1468.39
764.35	1632.23
764.54	1523.69
764.73	1564.65
764.92	1595.37
765.11	1497.07
765.30	1439.72
765.49	1599.46
765.68	1578.98
765.87	1456.11
766.06	1564.65
766.25	1509.35
766.44	1560.55
766.62	1619.94
766.81	1562.60
767.00	1527.78
767.19	1578.98
767.38	1490.92
767.57	1605.61
767.76	1554.41
767.95	1413.10
768.14	1568.74
768.33	1589.22
768.52	1497.07
768.71	1624.04
768.89	1560.55
769.08	1513.45
769.27	1503.21
769.46	1507.30
769.65	1634.28
769.84	1495.02
770.03	1619.94
770.22	1517.54
770.41	1632.23
770.60	1546.22
770.78	1544.17
770.97	1554.41
771.16	1562.60
771.35	1544.17
771.54	1615.85
771.73	1521.64
771.92	1568.74
772.11	1636.33
772.29	1540.07
772.48	1546.22
772.67	1583.08
772.86	1619.94
773.05	1507.30
773.24	1488.87
773.43	1560.55
773.61	1550.31
773.80	1591.27
773.99	1599.46
774.18	1513.45
774.37	1570.79
774.56	1507.30
774.75	1607.66
774.93	1544.17
775.12	1566.70
775.31	1583.08
775.50	1568.74
775.69	1552.36
775.88	1572.84
776.07	1554.41
776.25	1507.30
776.44	1601.51
776.63	1558.50
776.82	1476.59
777.01	1513.45
777.20	1529.83
777.38	1476.59
777.57	1431.53
777.76	1435.63
777.95	1566.70
778.14	1521.64
778.32	1603.56
778.51	1497.07
778.70	1570.79
778.89	1619.94
779.08	1603.56
779.27	1591.27
779.45	1466.35
779.64	1499.11
779.83	1542.12
780.02	1509.35
780.21	1495.02
780.39	1495.02
780.58	1394.67
780.77	1517.54
780.96	1597.42
781.15	1511.40
781.33	1427.43
781.52	1472.49
781.71	1497.07
781.90	1499.11
782.09	1400.81
782.27	1544.17
782.46	1476.59
782.65	1533.93
782.84	1480.68
783.02	1460.20
783.21	1515.50
783.40	1535.98
783.59	1544.17
783.78	1546.22
783.96	1490.92
784.15	1478.63
784.34	1505.26
784.53	1540.07
784.71	1574.89
784.90	1570.79
785.09	1595.37
785.28	1488.87
785.46	1546.22
785.65	1513.45
785.84	1443.82
786.03	1482.73
786.21	1468.39
786.40	1501.16
786.59	1413.10
786.78	1452.01
786.96	1458.15
787.15	1497.07
787.34	1468.39
787.53	1490.92
787.71	1490.92
787.90	1484.78
788.09	1452.01
788.27	1384.43
788.46	1548.26
788.65	1529.83
788.84	1462.25
789.02	1476.59
789.21	1376.24
789.40	1456.11
789.59	1533.93
789.77	1476.59
789.96	1466.35
790.15	1456.11
790.33	1462.25
790.52	1480.68
790.71	1572.84
790.89	1533.93
791.08	1552.36
791.27	1552.36
791.46	1535.98
791.64	1513.45
791.83	1542.12
792.02	1529.83
792.20	1427.43
792.39	1484.78
792.58	1468.39
792.76	1445.87
792.95	1517.54
793.14	1538.02
793.33	1529.83
793.51	1456.11
793.70	1597.42
793.89	1429.48
794.07	1615.85
794.26	1447.91
794.45	1406.95
794.63	1535.98
794.82	1583.08
795.01	1492.97
795.19	1421.29
795.38	1474.54
795.57	1566.70
795.75	1525.74
795.94	1472.49
796.13	1495.02
796.31	1462.25
796.50	1511.40
796.68	1464.30
796.87	1456.11
797.06	1501.16
797.24	1452.01
797.43	1443.82
797.62	1570.79
797.80	1558.50
797.99	1519.59
798.18	1478.63
798.36	1445.87
798.55	1542.12
798.74	1490.92
798.92	1525.74
799.11	1495.02
799.29	1591.27
799.48	1454.06
799.67	1492.97
799.85	1490.92
800.04	1515.50
800.23	1402.86
800.41	1521.64
800.60	1472.49
800.78	1535.98
800.97	1488.87
801.16	1525.74
801.34	1544.17
801.53	1460.20
801.71	1529.83
801.90	1486.83
802.09	1533.93
802.27	1495.02
802.46	1525.74
802.64	1538.02
802.83	1572.84
803.02	1568.74
803.20	1482.73
803.39	1558.50
803.57	1476.59
803.76	1687.53
803.95	1531.88
804.13	1482.73
804.32	1439.72
804.50	1542.12
804.69	1472.49
804.87	1488.87
805.06	1531.88
805.25	1525.74
805.43	1452.01
805.62	1466.35
805.80	1441.77
805.99	1542.12
806.17	1447.91
806.36	1513.45
806.55	1538.02
806.73	1525.74
806.92	1482.73
807.10	1480.68
807.29	1497.07
807.47	1519.59
807.66	1509.35
807.84	1447.91
808.03	1554.41
808.22	1603.56
808.40	1490.92
808.59	1492.97
808.77	1501.16
808.96	1497.07
809.14	1425.39
809.33	1464.30
809.51	1480.68
809.70	1488.87
809.88	1484.78
810.07	1538.02
810.25	1552.36
810.44	1517.54
810.62	1538.02
810.81	1419.24
811.00	1470.44
811.18	1447.91
811.37	1431.53
811.55	1415.15
811.74	1613.80
811.92	1482.73
812.11	1468.39
812.29	1423.34
812.48	1503.21
812.66	1521.64
812.85	1486.83
813.03	1511.40
813.22	1501.16
813.40	1501.16
813.59	1523.69
813.77	1550.31
813.96	1511.40
814.14	1484.78
814.33	1529.83
814.51	1527.78
814.70	1488.87
814.88	1495.02
815.06	1433.58
815.25	1458.15
815.43	1566.70
815.62	1480.68
815.80	1509.35
815.99	1425.39
816.17	1513.45
816.36	1523.69
816.54	1585.13
816.73	1515.50
816.91	1458.15
817.10	1499.11
817.28	1476.59
817.47	1443.82
817.65	1503.21
817.83	1492.97
818.02	1562.60
818.20	1521.64
818.39	1478.63
818.57	1462.25
818.76	1509.35
818.94	1527.78
819.13	1546.22
819.31	1488.87
819.50	1472.49
819.68	1415.15
819.86	1472.49
820.05	1513.45
820.23	1558.50
820.42	1591.27
820.60	1578.98
820.79	1634.28
820.97	1495.02
821.15	1550.31
821.34	1550.31
821.52	1505.26
821.71	1470.44
821.89	1497.07
822.07	1527.78
822.26	1484.78
822.44	1488.87
822.63	1589.22
822.81	1568.74
823.00	1505.26
823.18	1628.14
823.36	1689.57
823.55	1517.54
823.73	1540.07
823.92	1611.75
824.10	1572.84
824.28	1570.79
824.47	1486.83
824.65	1521.64
824.84	1570.79
825.02	1511.40
825.20	1505.26
825.39	1570.79
825.57	1501.16
825.75	1562.60
825.94	1490.92
826.12	1468.39
826.31	1533.93
826.49	1505.26
826.67	1509.35
826.86	1550.31
827.04	1568.74
827.22	1437.67
827.41	1550.31
827.59	1478.63
827.77	1595.37
827.96	1474.54
828.14	1470.44
828.33	1478.63
828.51	1409.00
828.69	1527.78
828.88	1476.59
829.06	1503.21
829.24	1452.01
829.43	1538.02
829.61	1527.78
829.79	1529.83
829.98	1523.69
830.16	1517.54
830.34	1521.64
830.53	1511.40
830.71	1581.03
830.89	1554.41
831.08	1550.31
831.26	1501.16
831.44	1523.69
831.63	1431.53
831.81	1492.97
831.99	1542.12
832.18	1531.88
832.36	1478.63
832.54	1513.45
832.73	1478.63
832.91	1497.07
833.09	1474.54
833.28	1509.35
833.46	1560.55
833.64	1525.74
833.82	1449.96
834.01	1521.64
834.19	1538.02
834.37	1583.08
834.56	1513.45
834.74	1562.60
834.92	1474.54
835.11	1564.65
835.29	1511.40
835.47	1492.97
835.65	1527.78
835.84	1546.22
836.02	1607.66
836.20	1562.60
836.39	1517.54
836.57	1488.87
836.75	1517.54
836.93	1560.55
837.12	1513.45
837.30	1517.54
837.48	1443.82
837.66	1533.93
837.85	1454.06
838.03	1462.25
838.21	1513.45
838.39	1488.87
838.58	1542.12
838.76	1515.50
838.94	1406.95
839.13	1535.98
839.31	1583.08
839.49	1521.64
839.67	1550.31
839.86	1427.43
840.04	1452.01
840.22	1472.49
840.40	1460.20
840.58	1564.65
840.77	1507.30
840.95	1535.98
841.13	1484.78
841.31	1462.25
841.50	1492.97
841.68	1429.48
841.86	1488.87
842.04	1462.25
842.23	1456.11
842.41	1558.50
842.59	1529.83
842.77	1488.87
842.95	1531.88
843.14	1634.28
843.32	1529.83
843.50	1517.54
843.68	1499.11
843.87	1499.11
844.05	1529.83
844.23	1499.11
844.41	1480.68
844.59	1546.22
844.78	1447.91
844.96	1454.06
845.14	1550.31
845.32	1546.22
845.50	1501.16
845.69	1501.16
845.87	1464.30
846.05	1490.92
846.23	1558.50
846.41	1505.26
846.59	1501.16
846.78	1525.74
846.96	1677.29
847.14	1603.56
847.32	1511.40
847.50	1525.74
847.68	1574.89
847.87	1507.30
848.05	1607.66
848.23	1558.50
848.41	1544.17
848.59	1421.29
848.77	1548.26
848.96	1529.83
849.14	1495.02
849.32	1546.22
849.50	1478.63
849.68	1578.98
849.86	1484.78
850.05	1615.85
850.23	1531.88
850.41	1480.68
850.59	1568.74
850.77	1560.55
850.95	1488.87
851.13	1550.31
851.32	1519.59
851.50	1603.56
851.68	1574.89
851.86	1488.87
852.04	1484.78
852.22	1554.41
852.40	1492.97
852.58	1546.22
852.77	1568.74
852.95	1505.26
853.13	1550.31
853.31	1443.82
853.49	1562.60
853.67	1558.50
853.85	1527.78
854.03	1591.27
854.22	1546.22
854.40	1652.71
854.58	1464.30
854.76	1435.63
854.94	1595.37
855.12	1564.65
855.30	1497.07
855.48	1472.49
855.66	1517.54
855.84	1552.36
856.03	1613.80
856.21	1556.46
856.39	1519.59
856.57	1499.11
856.75	1476.59
856.93	1501.16
857.11	1486.83
857.29	1513.45
857.47	1486.83
857.65	1562.60
857.83	1515.50
858.01	1484.78
858.19	1570.79
858.38	1607.66
858.56	1581.03
858.74	1486.83
858.92	1538.02
859.10	1486.83
859.28	1624.04
859.46	1527.78
859.64	1490.92
859.82	1429.48
860.00	1562.60
860.18	1531.88
860.36	1642.47
860.54	1585.13
860.72	1552.36
860.90	1615.85
861.08	1540.07
861.26	1527.78
861.44	1535.98
861.62	1456.11
861.81	1515.50
861.99	1652.71
862.17	1499.11
862.35	1482.73
862.53	1570.79
862.71	1390.57
862.89	1538.02
863.07	1503.21
863.25	1525.74
863.43	1529.83
863.61	1513.45
863.79	1525.74
863.97	1441.77
864.15	1517.54
864.33	1546.22
864.51	1609.70
864.69	1511.40
864.87	1562.60
865.05	1568.74
865.23	1456.11
865.41	1517.54
865.59	1488.87
865.77	1480.68
865.95	1544.17
866.13	1550.31
866.31	1515.50
866.49	1548.26
866.67	1472.49
866.85	1550.31
867.03	1488.87
867.21	1568.74
867.39	1507.30
867.57	1535.98
867.75	1525.74
867.93	1593.32
868.11	1523.69
868.29	1595.37
868.47	1544.17
868.65	1513.45
868.83	1515.50
869.00	1511.40
869.18	1576.94
869.36	1611.75
869.54	1652.71
869.72	1734.63
869.90	1724.39
870.08	1677.29
870.26	1644.52
870.44	1648.61
870.62	1583.08
870.80	1570.79
870.98	1585.13
871.16	1462.25
871.34	1581.03
871.52	1568.74
871.70	1574.89
871.88	1568.74
872.06	1556.46
872.24	1531.88
872.41	1546.22
872.59	1558.50
872.77	1550.31
872.95	1468.39
873.13	1550.31
873.31	1499.11
873.49	1554.41
873.67	1550.31
873.85	1458.15
874.03	1484.78
874.21	1578.98
874.39	1566.70
874.57	1513.45
874.74	1484.78
874.92	1521.64
875.10	1441.77
875.28	1572.84
875.46	1521.64
875.64	1492.97
875.82	1540.07
876.00	1636.33
876.18	1562.60
876.36	1546.22
876.53	1538.02
876.71	1499.11
876.89	1599.46
877.07	1486.83
877.25	1490.92
877.43	1523.69
877.61	1456.11
877.79	1486.83
877.96	1529.83
878.14	1527.78
878.32	1521.64
878.50	1513.45
878.68	1535.98
878.86	1519.59
879.04	1501.16
879.22	1476.59
879.39	1540.07
879.57	1548.26
879.75	1583.08
879.93	1531.88
880.11	1554.41
880.29	1464.30
880.47	1468.39
880.64	1478.63
880.82	1570.79
881.00	1562.60
881.18	1515.50
881.36	1605.61
881.54	1621.99
881.71	1609.70
881.89	1519.59
882.07	1556.46
882.25	1492.97
882.43	1490.92
882.61	1669.09
882.78	1492.97
882.96	1484.78
883.14	1615.85
883.32	1443.82
883.50	1513.45
883.68	1544.17
883.85	1523.69
884.03	1497.07
884.21	1480.68
884.39	1519.59
884.57	1468.39
884.75	1564.65
884.92	1533.93
885.10	1538.02
885.28	1564.65
885.46	1484.78
885.64	1560.55
885.81	1576.94
885.99	1472.49
886.17	1529.83
886.35	1458.15
886.53	1574.89
886.70	1523.69
886.88	1591.27
887.06	1538.02
887.24	1495.02
887.41	1456.11
887.59	1562.60
887.77	1568.74
887.95	1505.26
888.13	1603.56
888.30	1501.16
888.48	1560.55
888.66	1538.02
888.84	1546.22
889.01	1527.78
889.19	1603.56
889.37	1540.07
889.55	1548.26
889.72	1535.98
889.90	1531.88
890.08	1535.98
890.26	1578.98
890.43	1568.74
890.61	1607.66
890.79	1654.76
890.97	1509.35
891.14	1464.30
891.32	1593.32
891.50	1587.18
891.68	1492.97
891.85	1478.63
892.03	1484.78
892.21	1492.97
892.39	1492.97
892.56	1538.02
892.74	1517.54
892.92	1587.18
893.10	1529.83
893.27	1507.30
893.45	1601.51
893.63	1554.41
893.80	1515.50
893.98	1497.07
894.16	1542.12
894.34	1492.97
894.51	1427.43
894.69	1505.26
894.87	1441.77
895.04	1488.87
895.22	1470.44
895.40	1560.55
895.58	1529.83
895.75	1488.87
895.93	1562.60
896.11	1462.25
896.28	1521.64
896.46	1515.50
896.64	1495.02
896.81	1456.11
896.99	1517.54
897.17	1546.22
897.34	1544.17
897.52	1492.97
897.70	1460.20
897.88	1562.60
898.05	1519.59
898.23	1421.29
898.41	1482.73
898.58	1488.87
898.76	1488.87
898.94	1404.91
899.11	1507.30
899.29	1521.64
899.47	1474.54
899.64	1454.06
899.82	1558.50
900.00	1499.11
900.17	1482.73
900.35	1521.64
900.52	1521.64
900.70	1468.39
900.88	1548.26
901.05	1476.59
901.23	1443.82
901.41	1480.68
901.58	1552.36
901.76	1456.11
901.94	1460.20
902.11	1544.17
902.29	1564.65
902.47	1587.18
902.64	1492.97
902.82	1454.06
902.99	1404.91
903.17	1552.36
903.35	1509.35
903.52	1533.93
903.70	1490.92
903.88	1533.93
904.05	1419.24
904.23	1468.39
904.40	1628.14
904.58	1464.30
904.76	1474.54
904.93	1478.63
905.11	1456.11
905.28	1521.64
905.46	1478.63
905.64	1486.83
905.81	1630.18
905.99	1503.21
906.16	1542.12
906.34	1578.98
906.52	1460.20
906.69	1499.11
906.87	1533.93
907.04	1515.50
907.22	1552.36
907.40	1501.16
907.57	1546.22
907.75	1427.43
907.92	1458.15
908.10	1505.26
908.27	1492.97
908.45	1456.11
908.63	1447.91
908.80	1429.48
908.98	1449.96
909.15	1540.07
909.33	1527.78
909.50	1478.63
909.68	1519.59
909.86	1581.03
910.03	1556.46
910.21	1531.88
910.38	1560.55
910.56	1456.11
910.73	1435.63
910.91	1538.02
911.08	1519.59
911.26	1499.11
911.43	1507.30
911.61	1515.50
911.79	1480.68
911.96	1501.16
912.14	1423.34
912.31	1456.11
912.49	1523.69
912.66	1499.11
912.84	1517.54
913.01	1366.00
913.19	1531.88
913.36	1411.05
913.54	1433.58
913.71	1439.72
913.89	1386.47
914.06	1566.70
914.24	1513.45
914.41	1546.22
914.59	1548.26
914.76	1470.44
914.94	1490.92
915.11	1560.55
915.29	1480.68
915.46	1558.50
915.64	1464.30
915.81	1511.40
915.99	1482.73
916.16	1437.67
916.34	1495.02
916.51	1454.06
916.69	1529.83
916.86	1636.33
917.04	1519.59
917.21	1529.83
917.39	1482.73
917.56	1509.35
917.74	1517.54
917.91	1507.30
918.09	1476.59
918.26	1488.87
918.44	1458.15
918.61	1509.35
918.79	1480.68
918.96	1499.11
919.14	1525.74
919.31	1480.68
919.48	1503.21
919.66	1519.59
919.83	1501.16
920.01	1431.53
920.18	1511.40
920.36	1562.60
920.53	1619.94
920.71	1560.55
920.88	1443.82
921.05	1531.88
921.23	1431.53
921.40	1482.73
921.58	1540.07
921.75	1488.87
921.93	1538.02
922.10	1505.26
922.28	1435.63
922.45	1503.21
922.62	1398.76
922.80	1363.95
922.97	1591.27
923.15	1443.82
923.32	1488.87
923.50	1488.87
923.67	1535.98
923.84	1523.69
924.02	1521.64
924.19	1583.08
924.37	1454.06
924.54	1468.39
924.71	1409.00
924.89	1501.16
925.06	1517.54
925.24	1476.59
925.41	1568.74
925.58	1431.53
925.76	1445.87
925.93	1439.72
926.11	1529.83
926.28	1452.01
926.45	1505.26
926.63	1562.60
926.80	1515.50
926.98	1484.78
927.15	1529.83
927.32	1476.59
927.50	1497.07
927.67	1513.45
927.84	1417.19
928.02	1585.13
928.19	1472.49
928.37	1605.61
928.54	1570.79
928.71	1484.78
928.89	1552.36
929.06	1449.96
929.23	1447.91
929.41	1581.03
929.58	1589.22
929.75	1501.16
929.93	1503.21
930.10	1531.88
930.27	1466.35
930.45	1505.26
930.62	1452.01
930.79	1527.78
930.97	1476.59
931.14	1513.45
931.31	1529.83
931.49	1447.91
931.66	1503.21
931.83	1484.78
932.01	1452.01
932.18	1482.73
932.35	1587.18
932.53	1486.83
932.70	1456.11
932.87	1433.58
933.05	1521.64
933.22	1599.46
933.39	1466.35
933.57	1497.07
933.74	1468.39
933.91	1466.35
934.09	1548.26
934.26	1480.68
934.43	1531.88
934.61	1558.50
934.78	1527.78
934.95	1523.69
935.12	1458.15
935.30	1521.64
935.47	1492.97
935.64	1490.92
935.82	1454.06
935.99	1490.92
936.16	1431.53
936.34	1449.96
936.51	1499.11
936.68	1474.54
936.85	1548.26
937.03	1517.54
937.20	1523.69
937.37	1480.68
937.54	1492.97
937.72	1433.58
937.89	1515.50
938.06	1449.96
938.24	1550.31
938.41	1447.91
938.58	1542.12
938.75	1480.68
938.93	1503.21
939.10	1560.55
939.27	1521.64
939.44	1460.20
939.62	1511.40
939.79	1490.92
939.96	1628.14
940.13	1503.21
940.31	1339.37
940.48	1560.55
940.65	1488.87
940.82	1574.89
941.00	1509.35
941.17	1499.11
941.34	1445.87
941.51	1468.39
941.68	1462.25
941.86	1486.83
942.03	1441.77
942.20	1519.59
942.37	1437.67
942.55	1490.92
942.72	1468.39
942.89	1501.16
943.06	1535.98
943.23	1523.69
943.41	1427.43
943.58	1554.41
943.75	1454.06
943.92	1515.50
944.10	1566.70
944.27	1476.59
944.44	1458.15
944.61	1509.35
944.78	1423.34
944.95	1472.49
945.13	1452.01
945.30	1460.20
945.47	1501.16
945.64	1488.87
945.81	1472.49
945.99	1488.87
946.16	1482.73
946.33	1513.45
946.50	1480.68
946.67	1486.83
946.85	1480.68
947.02	1554.41
947.19	1544.17
947.36	1527.78
947.53	1572.84
947.70	1538.02
947.88	1507.30
948.05	1560.55
948.22	1501.16
948.39	1454.06
948.56	1527.78
948.73	1509.35
948.90	1542.12
949.08	1460.20
949.25	1468.39
949.42	1523.69
949.59	1509.35
949.76	1495.02
949.93	1484.78
950.11	1456.11
950.28	1550.31
950.45	1468.39
950.62	1515.50
950.79	1507.30
950.96	1452.01
951.13	1568.74
951.30	1490.92
951.48	1521.64
951.65	1462.25
951.82	1497.07
951.99	1490.92
952.16	1452.01
952.33	1533.93
952.50	1441.77
952.67	1460.20
952.85	1478.63
953.02	1550.31
953.19	1480.68
953.36	1474.54
953.53	1464.30
953.70	1482.73
953.87	1585.13
954.04	1507.30
954.21	1511.40
954.38	1492.97
954.56	1515.50
954.73	1597.42
954.90	1497.07
955.07	1505.26
955.24	1482.73
955.41	1527.78
955.58	1513.45
955.75	1576.94
955.92	1505.26
956.09	1447.91
956.26	1550.31
956.43	1560.55
956.61	1423.34
956.78	1531.88
956.95	1501.16
957.12	1501.16
957.29	1542.12
957.46	1474.54
957.63	1492.97
957.80	1435.63
957.97	1613.80
958.14	1595.37
958.31	1484.78
958.48	1374.19
958.65	1497.07
958.82	1482.73
958.99	1437.67
959.16	1515.50
959.33	1472.49
959.51	1488.87
959.68	1484.78
959.85	1558.50
960.02	1525.74
960.19	1478.63
960.36	1456.11
960.53	1495.02
960.70	1452.01
960.87	1478.63
961.04	1507.30
961.21	1495.02
961.38	1454.06
961.55	1521.64
961.72	1523.69
961.89	1533.93
962.06	1402.86
962.23	1509.35
962.40	1501.16
962.57	1447.91
962.74	1529.83
962.91	1529.83
963.08	1480.68
963.25	1480.68
963.42	1468.39
963.59	1419.24
963.76	1452.01
963.93	1511.40
964.10	1478.63
964.27	1523.69
964.44	1632.23
964.61	1488.87
964.78	1458.15
964.95	1464.30
965.12	1431.53
965.29	1488.87
965.46	1495.02
965.63	1488.87
965.80	1503.21
965.97	1470.44
966.14	1499.11
966.31	1464.30
966.48	1480.68
966.65	1652.71
966.82	1476.59
966.99	1499.11
967.16	1527.78
967.32	1513.45
967.49	1497.07
967.66	1488.87
967.83	1521.64
968.00	1507.30
968.17	1468.39
968.34	1529.83
968.51	1462.25
968.68	1486.83
968.85	1480.68
969.02	1505.26
969.19	1392.62
969.36	1550.31
969.53	1464.30
969.70	1554.41
969.87	1509.35
970.04	1566.70
970.21	1562.60
970.37	1492.97
970.54	1503.21
970.71	1517.54
970.88	1468.39
971.05	1456.11
971.22	1492.97
971.39	1447.91
971.56	1454.06
971.73	1470.44
971.90	1626.09
972.07	1513.45
972.23	1492.97
972.40	1484.78
972.57	1437.67
972.74	1550.31
972.91	1519.59
973.08	1552.36
973.25	1495.02
973.42	1503.21
973.59	1449.96
973.76	1560.55
973.92	1564.65
974.09	1515.50
974.26	1431.53
974.43	1523.69
974.60	1439.72
974.77	1439.72
974.94	1421.29
975.11	1538.02
975.27	1462.25
975.44	1470.44
975.61	1454.06
975.78	1419.24
975.95	1404.91
976.12	1568.74
976.29	1419.24
976.46	1525.74
976.62	1447.91
976.79	1535.98
976.96	1454.06
977.13	1486.83
977.30	1546.22
977.47	1456.11
977.64	1525.74
977.80	1492.97
977.97	1460.20
978.14	1554.41
978.31	1456.11
978.48	1421.29
978.65	1495.02
978.81	1497.07
978.98	1486.83
979.15	1601.51
979.32	1587.18
979.49	1550.31
979.66	1480.68
979.82	1462.25
979.99	1601.51
980.16	1515.50
980.33	1529.83
980.50	1425.39
980.66	1552.36
980.83	1505.26
981.00	1429.48
981.17	1472.49
981.34	1464.30
981.50	1503.21
981.67	1517.54
981.84	1488.87
982.01	1566.70
982.18	1574.89
982.34	1531.88
982.51	1521.64
982.68	1458.15
982.85	1523.69
983.02	1511.40
983.18	1374.19
983.35	1499.11
983.52	1501.16
983.69	1499.11
983.86	1470.44
984.02	1482.73
984.19	1490.92
984.36	1454.06
984.53	1525.74
984.69	1464.30
984.86	1495.02
985.03	1495.02
985.20	1531.88
985.37	1476.59
985.53	1468.39
985.70	1480.68
985.87	1517.54
986.04	1542.12
986.20	1572.84
986.37	1445.87
986.54	1425.39
986.71	1478.63
986.87	1513.45
987.04	1447.91
987.21	1423.34
987.38	1527.78
987.54	1521.64
987.71	1497.07
987.88	1480.68
988.04	1468.39
988.21	1550.31
988.38	1550.31
988.55	1529.83
988.71	1484.78
988.88	1443.82
989.05	1486.83
989.22	1447.91
989.38	1570.79
989.55	1515.50
989.72	1515.50
989.88	1431.53
990.05	1497.07
990.22	1562.60
990.39	1509.35
990.55	1513.45
990.72	1433.58
990.89	1597.42
991.05	1480.68
991.22	1427.43
991.39	1499.11
991.55	1558.50
991.72	1484.78
991.89	1542.12
992.06	1468.39
992.22	1495.02
992.39	1449.96
992.56	1466.35
992.72	1474.54
992.89	1490.92
993.06	1480.68
993.22	1462.25
993.39	1544.17
993.56	1552.36
993.72	1544.17
993.89	1519.59
994.06	1499.11
994.22	1460.20
994.39	1443.82
994.56	1517.54
994.72	1497.07
994.89	1546.22
995.06	1550.31
995.22	1449.96
995.39	1486.83
995.56	1464.30
995.72	1482.73
995.89	1460.20
996.06	1501.16
996.22	1470.44
996.39	1454.06
996.55	1521.64
996.72	1501.16
996.89	1486.83
997.05	1525.74
997.22	1413.10
997.39	1447.91
997.55	1558.50
997.72	1464.30
997.89	1437.67
998.05	1488.87
998.22	1499.11
998.38	1400.81
998.55	1546.22
998.72	1578.98
998.88	1499.11
999.05	1533.93
999.21	1488.87
999.38	1529.83
999.55	1484.78
999.71	1423.34
999.88	1474.54
1000.05	1527.78
1000.21	1538.02
1000.38	1398.76
1000.54	1505.26
1000.71	1552.36
1000.88	1474.54
1001.04	1499.11
1001.21	1431.53
1001.37	1497.07
1001.54	1546.22
1001.70	1490.92
1001.87	1486.83
1002.04	1484.78
1002.20	1492.97
1002.37	1488.87
1002.53	1564.65
1002.70	1519.59
1002.86	1630.18
1003.03	1482.73
1003.20	1525.74
1003.36	1523.69
1003.53	1521.64
1003.69	1464.30
1003.86	1484.78
1004.02	1521.64
1004.19	1587.18
1004.36	1488.87
1004.52	1482.73
1004.69	1503.21
1004.85	1556.46
1005.02	1587.18
1005.18	1495.02
1005.35	1517.54
1005.51	1447.91
1005.68	1482.73
1005.84	1501.16
1006.01	1402.86
1006.18	1574.89
1006.34	1509.35
1006.51	1490.92
1006.67	1449.96
1006.84	1517.54
1007.00	1359.85
1007.17	1501.16
1007.33	1519.59
1007.50	1421.29
1007.66	1540.07
1007.83	1409.00
1007.99	1529.83
1008.16	1519.59
1008.32	1497.07
1008.49	1480.68
1008.65	1552.36
1008.82	1470.44
1008.98	1535.98
1009.15	1492.97
1009.31	1462.25
1009.48	1531.88
1009.64	1447.91
1009.81	1523.69
1009.97	1460.20
1010.14	1529.83
1010.30	1400.81
1010.47	1488.87
1010.63	1495.02
1010.80	1499.11
1010.96	1562.60
1011.13	1452.01
1011.29	1546.22
1011.46	1492.97
1011.62	1431.53
1011.79	1540.07
1011.95	1466.35
1012.12	1529.83
1012.28	1478.63
1012.44	1533.93
1012.61	1540.07
1012.77	1527.78
1012.94	1431.53
1013.10	1572.84
1013.27	1513.45
1013.43	1544.17
1013.60	1454.06
1013.76	1499.11
1013.93	1560.55
1014.09	1503.21
1014.25	1511.40
1014.42	1583.08
1014.58	1503.21
1014.75	1423.34
1014.91	1511.40
1015.08	1411.05
1015.24	1587.18
1015.40	1513.45
1015.57	1476.59
1015.73	1576.94
1015.90	1558.50
1016.06	1523.69
1016.23	1478.63
1016.39	1484.78
1016.55	1552.36
1016.72	1511.40
1016.88	1495.02
1017.05	1447.91
1017.21	1583.08
1017.37	1595.37
1017.54	1482.73
1017.70	1472.49
1017.87	1503.21
1018.03	1454.06
1018.20	1535.98
1018.36	1415.15
1018.52	1507.30
1018.69	1576.94
1018.85	1486.83
1019.01	1441.77
1019.18	1517.54
1019.34	1552.36
1019.51	1497.07
1019.67	1546.22
1019.83	1470.44
1020.00	1544.17
1020.16	1488.87
1020.33	1423.34
1020.49	1517.54
1020.65	1595.37
1020.82	1470.44
1020.98	1529.83
1021.14	1452.01
1021.31	1533.93
1021.47	1439.72
1021.63	1443.82
1021.80	1535.98
1021.96	1509.35
1022.13	1525.74
1022.29	1550.31
1022.45	1466.35
1022.62	1538.02
1022.78	1464.30
1022.94	1515.50
1023.11	1585.13
1023.27	1480.68
1023.43	1521.64
1023.60	1484.78
1023.76	1505.26
1023.92	1538.02
1024.09	1517.54
1024.25	1482.73
1024.41	1533.93
1024.58	1488.87
1024.74	1529.83
1024.90	1460.20
1025.07	1482.73
1025.23	1470.44
1025.39	1578.98
1025.56	1505.26
1025.72	1624.04
1025.88	1624.04
1026.05	1531.88
1026.21	1490.92
1026.37	1578.98
1026.53	1509.35
1026.70	1480.68
1026.86	1544.17
1027.02	1490.92
1027.19	1447.91
1027.35	1445.87
1027.51	1472.49
1027.68	1495.02
1027.84	1576.94
1028.00	1533.93
1028.16	1501.16
1028.33	1558.50
1028.49	1556.46
1028.65	1495.02
1028.81	1497.07
1028.98	1488.87
1029.14	1556.46
1029.30	1413.10
1029.47	1447.91
1029.63	1556.46
1029.79	1482.73
1029.95	1519.59
1030.12	1486.83
1030.28	1421.29
1030.44	1445.87
1030.60	1490.92
1030.77	1499.11
1030.93	1470.44
1031.09	1607.66
1031.25	1462.25
1031.42	1550.31
1031.58	1556.46
1031.74	1505.26
1031.90	1466.35
1032.07	1474.54
1032.23	1454.06
1032.39	1433.58
1032.55	1495.02
1032.72	1525.74
1032.88	1529.83
1033.04	1578.98
1033.20	1546.22
1033.37	1415.15
1033.53	1499.11
1033.69	1583.08
1033.85	1492.97
1034.01	1503.21
1034.18	1640.42
1034.34	1597.42
1034.50	1462.25
1034.66	1406.95
1034.83	1421.29
1034.99	1570.79
1035.15	1499.11
1035.31	1576.94
1035.47	1517.54
1035.64	1492.97
1035.80	1519.59
1035.96	1546.22
1036.12	1544.17
1036.28	1576.94
1036.45	1519.59
1036.61	1519.59
1036.77	1570.79
1036.93	1576.94
1037.09	1538.02
1037.25	1574.89
1037.42	1517.54
1037.58	1546.22
1037.74	1488.87
1037.90	1501.16
1038.06	1505.26
1038.22	1552.36
1038.39	1478.63
1038.55	1484.78
1038.71	1521.64
1038.87	1521.64
1039.03	1486.83
1039.19	1519.59
1039.36	1509.35
1039.52	1490.92
1039.68	1603.56
1039.84	1468.39
1040.00	1482.73
1040.16	1562.60
1040.33	1562.60
1040.49	1441.77
1040.65	1429.48
1040.81	1570.79
1040.97	1415.15
1041.13	1484.78
1041.29	1607.66
1041.46	1458.15
1041.62	1484.78
1041.78	1523.69
1041.94	1406.95
1042.10	1589.22
1042.26	1468.39
1042.42	1429.48
1042.58	1521.64
1042.75	1599.46
1042.91	1519.59
1043.07	1544.17
1043.23	1568.74
1043.39	1619.94
1043.55	1452.01
1043.71	1501.16
1043.87	1482.73
1044.03	1456.11
1044.20	1396.71
1044.36	1525.74
1044.52	1548.26
1044.68	1515.50
1044.84	1587.18
1045.00	1550.31
1045.16	1517.54
1045.32	1441.77
1045.48	1595.37
1045.64	1495.02
1045.80	1583.08
1045.97	1529.83
1046.13	1554.41
1046.29	1521.64
1046.45	1595.37
1046.61	1513.45
1046.77	1411.05
1046.93	1419.24
1047.09	1611.75
>>>>>End Processed Spectral Data<<<<<
